File: constrainednmf/example_data/BaTiO3_xrd_ramp/BTO_295K_tth.xy
0.000000000000000000e+00 0.00288782
12 0.0136028
24 0.0140743
36 0.00427453
48 0.00429128
60 0.00441597
72 0.00458225
84 0.00504315
96 0.00501943
108 0.00509557
120 0.00510375
132 0.00517508
144 0.00524125
156 0.00526366
168 0.00516321
180 0.00520893
192 0.00513108
204 0.00513978
216 0.0049934
228 0.00502905
240 0.00496268
252 0.00513805
264 0.00514731
276 0.00523484
288 0.00546204
300 0.00510703
312 0.0049189
324 0.00575154
336 0.0728483
348 0.00432103
360 0.00695205
372 0.00334388
384 0.00313487
396 0.00322013
408 0.00325099
420 0.00339128
432 0.00349852
444 0.00438417
456 0.00689521
468 0.0843246
480 0.0265569
492 0.00556924
504 0.00389363
516 0.00379913
528 0.00231454
540 0.00235436
552 0.00256273
564 0.00369012
576 0.06123
588 0.0070258
600 0.0030532
612 0.00259028
624 0.00420068
636 0.00383266
648 0.00458864
660 0.0207052
672 0.322846
684 0.00671347
696 0.00435126
708 0.00320437
720 0.0032629
732 0.00367655
744 0.0460796
756 0.0100581
768 0.00352462
780 0.00343968
792 0.00429825
804 0.00785157
816 0.177489
828 0.0256268
840 0.00555214
852 0.00356417
864 0.00318562
876 0.00283862
888 0.00301868
900 0.00263259
912 0.00245136
924 0.00339309
936 0.0090332
948 0.303495
960 0.00694374
972 0.00365792
984 0.00324174
996 0.00832139
1008 0.0610487
1020 0.00329916
1032 0.00322077
1044 0.00737709
1056 0.13109
1068 0.0269261
1080 0.00446598
1092 0.00409
1104 0.0322593
1116 0.0798225
1128 0.00339057
1140 0.00267679
1152 0.00613369
1164 0.05918
1176 0.00295684
1188 0.00262369
1200 0.00780178
1212 0.0342016
1224 0.00399157
1236 0.00630402
1248 0.0894043
1260 0.0891653
1272 0.00542981
1284 0.0029516
1296 0.00225692
1308 0.00248806
1320 0.00278416
1332 0.018016
1344 0.0331997
1356 0.00419895
1368 0.00463061
1380 0.043432
1392 0.00867393
1404 0.00625558
1416 0.0608596
1428 0.108807
1440 0.0065727
1452 0.00775207
1464 0.0495811
1476 0.00587881
1488 0.014625
1500 0.0846422
1512 0.0108891
1524 0.00678429
1536 0.0302588
1548 0.006333
1560 0.0054982
1572 0.0960824
1584 0.00667309
1596 0.00414087
1608 0.00367459
1620 0.00433315
1632 0.00999277
1644 0.0806347
1656 0.0082385
1668 0.00892612
1680 0.0194475
1692 0.00851506
1704 0.0623286
1716 0.117102
1728 0.0101793
1740 0.0214248
1752 0.0183782
1764 0.0034403
1776 0.00264109
1788 0.00325034
1800 0.0138094
1812 0.0315426
1824 0.00980823
1836 0.0401081
1848 0.0238042
1860 0.0033789
1872 0.00232667
1884 0.00299025
1896 0.0251162
1908 0.00961589
1920 0.008394
1932 0.0179921
1944 0.00629203
1956 0.0536745
1968 0.0129744
1980 0.0210065
1992 0.0287477
2004 0.0096649
2016 0.0508109
2028 0.0077114
2040 0.00572792
2052 0.0103818
2064 0.0384608
2076 0.0620564
2088 0.00474885
2100 0.00276015
2112 0.0117826
2124 0.0148495
2136 0.0142585
2148 0.0178431
2160 0.0148812
2172 0.02729
2184 0.0277302
2196 0.00747417
2208 0.0137172
2220 0.01287
2232 0.0181648
2244 0.00817127
2256 0.0161434
2268 0.0133014
2280 0.0193811
2292 0.00780288
2304 0.00241067
2316 0.0022893
2328 0.0124158
2340 0.00523654
2352 0.00870891
2364 0.013402
2376 0.0440102
2388 0.0226775
2400 0.0153011
2412 0.0142483
2424 0.0160126
2436 0.0140058
2448 0.0116712
2460 0.0198935
2472 0.0325632
2484 0.0150504
2496 0.00543092
2508 0.014163
2520 0.031721
2532 0.00867748
2544 0.00935299
2556 0.00789479
2568 0.0122192
2580 0.0122029
2592 0.0144355
2604 0.00375495
2616 0.00446732
2628 0.0100191
2640 0.0166283
2652 0.0246106
2664 0.00703763
2676 0.00236947
2688 0.00349049
2700 0.00524732
2712 0.00839002
2724 0.015444
2736 0.0234737
2748 0.0118572
2760 0.00832851
2772 0.0111209
2784 0.0152337
2796 0.00589123
2808 0.00848074
2820 0.0141013
2832 0.00270525
2844 0.00469525
2856 0.0072304
2868 0.0121926
2880 0.00677218
2892 0.0154885
2904 0.0236189
2916 0.00911139
2928 0.00727234
2940 0.00733969
2952 0.00626602
2964 0.00803397
2976 0.0082108
2988 0.00480104
3000 0.00414465
3012 0.00522663
3024 0.0101567
3036 0.00901808
3048 0.00709101
3060 0.0113791
3072 0.00992647
3084 0.0122806
3096 0.0140134
3108 0.00992611
3120 0.0137792
3132 0.0158514
3144 0.0085513
3156 0.00717929
3168 0.0114154
3180 0.0107919
3192 0.016736
3204 0.0191338
3216 0.00821123
3228 0.00773227
3240 0.00417831
3252 0.00477128
3264 0.00943781
3276 0.00976514
3288 0.00394304
3300 0.00312926
3312 0.00365707
3324 0.0051817
3336 0.00604767
3348 0.00976227
3360 0.00466111
3372 0.00379136
3384 0.00680642
3396 0.0086229
3408 0.00782545
3420 0.00840868
3432 0.0130825
3444 0.0158591
3456 0.0199138
3468 0.022632
3480 0.0337097
3487 0.00154009