File: constrainednmf/example_data/BaTiO3_xrd_ramp/BTO_445K_tth.xy
0.000000000000000000e+00 0.000214299
12 0.0120517
24 0.0127687
36 0.00306985
48 0.00316321
60 0.00324844
72 0.00332559
84 0.00368875
96 0.0035523
108 0.00339921
120 0.00323847
132 0.0031359
144 0.00300354
156 0.00281187
168 0.00262333
180 0.00252423
192 0.00230776
204 0.0022366
216 0.00215057
228 0.00213173
240 0.0020245
252 0.00213035
264 0.00231106
276 0.00243953
288 0.00256972
300 0.00225487
312 0.00195006
324 0.00292276
336 0.0482324
348 0.0014005
360 0.00398113
372 0.000751753
384 0.000789954
396 0.000874411
408 0.000879871
420 0.00102901
432 0.0012072
444 0.00208727
456 0.00471249
468 0.0822954
480 0.0192316
492 0.00328442
504 0.001886
516 0.00171698
528 0.000321557
540 0.000299977
552 0.000516702
564 0.00154625
576 0.0717609
588 0.00405271
600 0.00105863
612 0.000735854
624 0.00197522
636 0.0016291
648 0.00244775
660 0.0166712
672 0.184541
684 0.00414857
696 0.00148601
708 0.000815518
720 0.000793691
732 0.00132933
744 0.0300972
756 0.00473512
768 0.000939018
780 0.000999922
792 0.00183611
804 0.00558966
816 0.147205
828 0.0162644
840 0.00287812
852 0.00127385
864 0.00056356
876 0.000398293
888 0.000452655
900 0.000453402
912 0.000395588
924 0.00123127
936 0.00725153
948 0.323245
960 0.0040644
972 0.00151339
984 0.000924359
996 0.00504848
1008 0.0293814
1020 0.00139845
1032 0.00142289
1044 0.00570566
1056 0.125002
1068 0.012702
1080 0.00260952
1092 0.00220946
1104 0.0182025
1116 0.0234452
1128 0.00116682
1140 0.000775205
1152 0.00503693
1164 0.026095
1176 0.00116044
1188 0.000929333
1200 0.00510975
1212 0.0143204
1224 0.00227154
1236 0.00470674
1248 0.065139
1260 0.0312887
1272 0.00314477
1284 0.000975266
1296 0.000533366
1308 0.000423022
1320 0.000749363
1332 0.00691304
1344 0.0276505
1356 0.00142118
1368 0.00206751
1380 0.0531325
1392 0.00335945
1404 0.00367296
1416 0.03805
1428 0.027781
1440 0.00335403
1452 0.0047252
1464 0.0313516
1476 0.00250476
1488 0.00919289
1500 0.151495
1512 0.00496192
1524 0.00335573
1536 0.050712
1548 0.00203624
1560 0.00261251
1572 0.107046
1584 0.00266723
1596 0.000891888
1608 0.000738027
1620 0.00121206
1632 0.00666702
1644 0.117746
1656 0.00387356
1668 0.00437938
1680 0.0148398
1692 0.00557036
1704 0.0417544
1716 0.0397345
1728 0.00575304
1740 0.0217026
1752 0.00377034
1764 0.0010282
1776 0.00053828
1788 0.000747907
1800 0.0081248
1812 0.010663
1824 0.00621684
1836 0.0586915
1848 0.00634799
1860 0.00099067
1872 0.00014848
1884 0.00104068
1896 0.0243643
1908 0.0028943
1920 0.00409753
1932 0.0106759
1944 0.00469664
1956 0.0726993
1968 0.0051402
1980 0.0127023
1992 0.00993682
2004 0.00686534
2016 0.0532092
2028 0.00398428
2040 0.00647095
2052 0.00460873
2064 0.0249743
2076 0.0197151
2088 0.00263816
2100 0.00229649
2112 0.00506443
2124 0.0316128
2136 0.00462155
2148 0.0199432
2160 0.00468597
2172 0.0199862
2184 0.00836512
2196 0.00388447
2208 0.00441408
2220 0.00675422
2232 0.0202602
2244 0.00382456
2256 0.0152472
2268 0.00551143
2280 0.0357407
2292 0.00184186
2304 0.000615806
2316 0.000557947
2328 0.0121371
2340 0.00173391
2352 0.0108806
2364 0.0062126
2376 0.0541364
2388 0.00687312
2400 0.0162907
2412 0.00423035
2424 0.0207126
2436 0.00417502
2448 0.0137534
2460 0.00860882
2472 0.0476953
2484 0.00418047
2496 0.00311335
2508 0.00704461
2520 0.0219246
2532 0.00380147
2544 0.00384498
2556 0.00422416
2568 0.00501042
2580 0.00896189
2592 0.00272651
2604 0.000502759
2616 0.00114391
2628 0.0102422
2640 0.00698976
2652 0.0247575
2664 0.00155987
2676 0.00067526
2688 0.000499742
2700 0.00199727
2712 0.00872392
2724 0.00620814
2736 0.026279
2748 0.00336734
2760 0.00418636
2772 0.00953143
2784 0.00580137
2796 0.00788437
2808 0.00250155
2820 0.00779999
2832 0.000853142
2844 0.00095741
2856 0.00913118
2868 0.00240318
2880 0.00450953
2892 0.011297
2904 0.00903939
2916 0.00845931
2928 0.00248018
2940 0.00431682
2952 0.00432083
2964 0.00221566
2976 0.00917562
2988 0.000830191
3000 0.00155967
3012 0.00445703
3024 0.00253261
3036 0.00655703
3048 0.005328
3060 0.00400257
3072 0.00810821
3084 0.00566934
3096 0.00510636
3108 0.00446889
3120 0.00683777
3132 0.00741661
3144 0.00227836
3156 0.00350888
3168 0.00351005
3180 0.00895853
3192 0.0075267
3204 0.00949354
3216 0.00492091
3228 0.00271601
3240 0.00147468
3252 0.0032613
3264 0.00501276
3276 0.00664738
3288 0.00250175
3300 0.00336759
3312 0.00464432
3324 0.00305673
3336 0.00628757
3348 0.00573826
3360 0.00588455
3372 0.00465577
3384 0.00411574
3396 0.00448029
3408 0.00532184
3420 0.00213728
3432 0.00447092
3444 0.0107223
3456 0.0125815
3468 0.00771632
3480 0.000359078
3487 0.0131132