File: constrainednmf/example_data/BaTiO3_xrd_ramp/BTO_185K_tth.xy
0.000000000000000000e+00 0.000204682
12 0.00997911
24 0.0110868
36 0.00289959
48 0.00305111
60 0.00320648
72 0.00332346
84 0.00360838
96 0.00353433
108 0.00341792
120 0.00329508
132 0.00317054
144 0.00299251
156 0.00285757
168 0.00273582
180 0.00256059
192 0.00248821
204 0.00222489
216 0.00210507
228 0.00200543
240 0.00195331
252 0.00206111
264 0.00200755
276 0.00201956
288 0.00236297
300 0.00217079
312 0.00194219
324 0.0028985
336 0.0664472
348 0.00188318
360 0.0041178
372 0.000956536
384 0.00145558
396 0.000938197
408 0.00103228
420 0.00125516
432 0.00136437
444 0.00209712
456 0.00437798
468 0.0627069
480 0.0264381
492 0.00348947
504 0.00180467
516 0.00210751
528 0.000407214
540 0.000233318
552 0.000619851
564 0.00153351
576 0.0463903
588 0.00561047
600 0.00124758
612 0.000738172
624 0.0021156
636 0.00185614
648 0.00756105
660 0.0130705
672 0.248175
684 0.00497602
696 0.0032842
708 0.00131217
720 0.000741196
732 0.00108436
744 0.0222655
756 0.00940475
768 0.000815608
780 0.00115175
792 0.00142683
804 0.00427194
816 0.101763
828 0.0291358
840 0.00277955
852 0.000836261
864 0.000653177
876 0.000565872
888 0.000875491
900 0.000290041
912 0.000493719
924 0.00106061
936 0.00563217
948 0.34816
960 0.00573993
972 0.00177253
984 0.00203337
996 0.00405849
1008 0.0726289
1020 0.00173484
1032 0.00154225
1044 0.00448926
1056 0.113908
1068 0.0370296
1080 0.0032031
1092 0.0027667
1104 0.0134462
1116 0.0660554
1128 0.001766
1140 0.00100179
1152 0.0039632
1164 0.105254
1176 0.00115806
1188 0.000848774
1200 0.00413096
1212 0.034897
1224 0.00190758
1236 0.00363972
1248 0.0497134
1260 0.111744
1272 0.00358071
1284 0.0009273
1296 0.000462622
1308 0.000335705
1320 0.000745255
1332 0.00495486
1344 0.0313382
1356 0.00279316
1368 0.00191143
1380 0.0437207
1392 0.00893688
1404 0.0028493
1416 0.0310273
1428 0.0790451
1440 0.00440451
1452 0.00459051
1464 0.0694024
1476 0.00309938
1488 0.00767776
1500 0.126891
1512 0.0115224
1524 0.00344374
1536 0.0415424
1548 0.00534404
1560 0.00233386
1572 0.0602548
1584 0.00516158
1596 0.00119566
1608 0.000816756
1620 0.00157802
1632 0.00484492
1644 0.0970968
1656 0.00712524
1668 0.00425969
1680 0.0230492
1692 0.00516052
1704 0.0373977
1716 0.119326
1728 0.00788497
1740 0.023562
1752 0.0124649
1764 0.00109581
1776 0.000429932
1788 0.0009212
1800 0.00804051
1812 0.0347769
1824 0.00583096
1836 0.0595536
1848 0.0283256
1860 0.00187017
1872 0.000614025
1884 0.00128298
1896 0.0138369
1908 0.00753556
1920 0.00421863
1932 0.0222445
1944 0.00421228
1956 0.0497957
1968 0.0154994
1980 0.0124027
1992 0.0284782
2004 0.0065171
2016 0.0556353
2028 0.0072781
2040 0.00774573
2052 0.00576481
2064 0.025583
2076 0.0618853
2088 0.00592542
2100 0.00166248
2112 0.00382738
2124 0.0287272
2136 0.0132128
2148 0.0200354
2160 0.0118548
2172 0.0167031
2184 0.0364971
2196 0.00459043
2208 0.0146457
2220 0.00551424
2232 0.0253214
2244 0.00756248
2256 0.0182712
2268 0.00612016
2280 0.0324691
2292 0.0105403
2304 0.000826617
2316 0.000529015
2328 0.00580656
2340 0.00197025
2352 0.00992575
2364 0.00826859
2376 0.0400436
2388 0.0169786
2400 0.0157477
2412 0.00762091
2424 0.0169628
2436 0.0100983
2448 0.0130961
2460 0.0107726
2472 0.0460042
2484 0.0144492
2496 0.00251703
2508 0.00620581
2520 0.0363722
2532 0.00702157
2544 0.00883746
2556 0.00588294
2568 0.00915399
2580 0.0124706
2592 0.0115714
2604 0.00134936
2616 0.00161061
2628 0.00853009
2640 0.00996655
2652 0.036545
2664 0.00825195
2676 0.00101363
2688 0.00180884
2700 0.00263937
2712 0.0100334
2724 0.0103896
2736 0.0296207
2748 0.0112499
2760 0.00622261
2772 0.0124804
2784 0.017911
2796 0.0106477
2808 0.00665097
2820 0.0160956
2832 0.00196186
2844 0.00167458
2856 0.00959811
2868 0.00840894
2880 0.00658997
2892 0.0155043
2904 0.0273562
2916 0.011606
2928 0.00588769
2940 0.00940649
2952 0.00674434
2964 0.00731349
2976 0.00976951
2988 0.00439909
3000 0.00016591
3012 0.00467183
3024 0.00600975
3036 0.00921812
3048 0.00901238
3060 0.00771799
3072 0.00902495
3084 0.00805823
3096 0.0109537
3108 0.00627002
3120 0.0106639
3132 0.022707
3144 0.00425164
3156 0.00328847
3168 0.0106625
3180 0.00894355
3192 0.0111161
3204 0.0212783
3216 0.00788052
3228 0.00347497
3240 0.000360306
3252 0.00174543
3264 0.00758892
3276 0.0138555
3288 0.00315351
3300 0.00245297
3312 0.00566436
3324 0.00320488
3336 0.00826554
3348 0.0144515
3360 0.00753858
3372 0.00521482
3384 0.00655853
3396 0.0103677
3408 0.00726909
3420 0.00533329
3432 0.00252495
3444 0.00791653
3456 0.0107319
3468 0.0103355
3480 0.00889652
3487 0.000256837