File: constrainednmf/example_data/BaTiO3_xrd_ramp/BTO_410K_tth.xy
0.000000000000000000e+00 0.000740806
12 0.0124907
24 0.0130334
36 0.00290096
48 0.00297315
60 0.00297653
72 0.00313393
84 0.00353381
96 0.00344373
108 0.00330656
120 0.00335518
132 0.00329407
144 0.00330196
156 0.00322032
168 0.00310873
180 0.0030578
192 0.00297769
204 0.00285401
216 0.00285248
228 0.00288117
240 0.00280529
252 0.00296554
264 0.00300577
276 0.00317525
288 0.00344263
300 0.00302786
312 0.00275243
324 0.00374634
336 0.0559373
348 0.00217026
360 0.00472245
372 0.00134424
384 0.0013656
396 0.0012849
408 0.0014976
420 0.00153014
432 0.00164255
444 0.0024374
456 0.00521035
468 0.0855839
480 0.0209021
492 0.00364066
504 0.00202605
516 0.00203742
528 0.000690205
540 0.000541032
552 0.000869975
564 0.0019143
576 0.0714293
588 0.00464869
600 0.00132294
612 0.00100822
624 0.00248423
636 0.00194057
648 0.00276767
660 0.0184585
672 0.248246
684 0.00467947
696 0.00185253
708 0.0011347
720 0.00119074
732 0.00183002
744 0.0384906
756 0.00593932
768 0.00148512
780 0.0013738
792 0.00248602
804 0.00605307
816 0.17087
828 0.0180867
840 0.00364525
852 0.00154992
864 0.00120718
876 0.00104452
888 0.0010546
900 0.000917852
912 0.000838068
924 0.00149111
936 0.00751333
948 0.299294
960 0.00446447
972 0.0019536
984 0.00118051
996 0.00596472
1008 0.0391303
1020 0.00149255
1032 0.00139972
1044 0.00582864
1056 0.132244
1068 0.0150504
1080 0.00284349
1092 0.00201365
1104 0.024442
1116 0.0327335
1128 0.00143001
1140 0.00105254
1152 0.00515597
1164 0.0296811
1176 0.00128236
1188 0.000925093
1200 0.0055796
1212 0.0210204
1224 0.00250579
1236 0.00506433
1248 0.0791503
1260 0.039435
1272 0.00324132
1284 0.00141841
1296 0.000345466
1308 0.000713428
1320 0.000685147
1332 0.0117555
1344 0.0430292
1356 0.00177446
1368 0.00265827
1380 0.045183
1392 0.00397426
1404 0.00422798
1416 0.0543282
1428 0.0420761
1440 0.00382432
1452 0.00574056
1464 0.0401962
1476 0.00368888
1488 0.0115927
1500 0.122667
1512 0.00621143
1524 0.00476998
1536 0.0365472
1548 0.00326315
1560 0.0033349
1572 0.107438
1584 0.00321366
1596 0.00201532
1608 0.00145689
1620 0.00236709
1632 0.00785828
1644 0.112529
1656 0.004983
1668 0.00627018
1680 0.0189052
1692 0.00666208
1704 0.0552297
1716 0.0665359
1728 0.00720262
1740 0.0188013
1752 0.006096
1764 0.00143391
1776 0.00121928
1788 0.00155198
1800 0.0120716
1812 0.016605
1824 0.00753964
1836 0.0372494
1848 0.00825397
1860 0.001753
1872 0.000463281
1884 0.00145677
1896 0.0271018
1908 0.00349213
1920 0.00511428
1932 0.0152217
1944 0.00494636
1956 0.0638168
1968 0.00617551
1980 0.0176415
1992 0.0152227
2004 0.00787687
2016 0.0479893
2028 0.00389389
2040 0.00429953
2052 0.00528156
2064 0.0325023
2076 0.0327438
2088 0.00278615
2100 0.00129268
2112 0.00684853
2124 0.0175391
2136 0.00584467
2148 0.0178194
2160 0.00583062
2172 0.0255438
2184 0.0130829
2196 0.00469021
2208 0.00541061
2220 0.0101482
2232 0.0282837
2244 0.00491807
2256 0.0146738
2268 0.00714916
2280 0.0279636
2292 0.00243628
2304 0.000350655
2316 0.000800787
2328 0.0129461
2340 0.00237906
2352 0.0074409
2364 0.00775365
2376 0.044879
2388 0.0092431
2400 0.0121271
2412 0.00557429
2424 0.0163031
2436 0.00642562
2448 0.0106068
2460 0.0129896
2472 0.0361474
2484 0.0052384
2496 0.00346521
2508 0.00958944
2520 0.0276235
2532 0.00504457
2544 0.00640184
2556 0.00512767
2568 0.00841464
2580 0.00925425
2592 0.00581523
2604 0.00194123
2616 0.00218362
2628 0.00911265
2640 0.0109128
2652 0.0261346
2664 0.00298789
2676 0.00166023
2688 0.000911147
2700 0.00380365
2712 0.007214
2724 0.00954536
2736 0.0240582
2748 0.00482974
2760 0.0056937
2772 0.00888956
2784 0.00935591
2796 0.00443613
2808 0.00399628
2820 0.009635
2832 0.000246215
2844 0.00278117
2856 0.00648323
2868 0.00408184
2880 0.00556705
2892 0.0119746
2904 0.0158593
2916 0.0082233
2928 0.00301365
2940 0.00573969
2952 0.00399649
2964 0.00392358
2976 0.00756765
2988 0.00229494
3000 0.00308848
3012 0.00302566
3024 0.0040769
3036 0.00790792
3048 0.00442177
3060 0.00690836
3072 0.00907454
3084 0.00771486
3096 0.00912057
3108 0.00438892
3120 0.0107994
3132 0.0124166
3144 0.00409483
3156 0.00457584
3168 0.00624503
3180 0.00780542
3192 0.0105451
3204 0.0133989
3216 0.00507488
3228 0.00386021
3240 0.00213127
3252 0.00415494
3264 0.00647339
3276 0.00888643
3288 0.00416834
3300 0.0025831
3312 0.00464345
3324 0.00452525
3336 0.00616609
3348 0.00791412
3360 0.00682786
3372 0.00730364
3384 0.00559171
3396 0.00339327
3408 0.00467982
3420 0.00722415
3432 0.00374885
3444 0.0103335
3456 0.0119279
3468 0.0182708
3480 0.0166557
3487 0.000397643