File: constrainednmf/example_data/BaTiO3_xrd_ramp/BTO_210K_tth.xy
0.000000000000000000e+00 4.63567e-05
12 0.0101238
24 0.0112701
36 0.00277667
48 0.00297153
60 0.00303937
72 0.00321068
84 0.00352759
96 0.00349167
108 0.00331924
120 0.00315276
132 0.00312926
144 0.00296548
156 0.00279009
168 0.00261139
180 0.00242996
192 0.0023006
204 0.00218121
216 0.0020074
228 0.00194208
240 0.00185744
252 0.00190475
264 0.00192808
276 0.00197612
288 0.00227338
300 0.00209698
312 0.00202555
324 0.00290282
336 0.0693466
348 0.00193154
360 0.00431678
372 0.000929461
384 0.00111684
396 0.000879097
408 0.000908821
420 0.00120093
432 0.00125531
444 0.00199785
456 0.00448036
468 0.0701647
480 0.0264097
492 0.00350225
504 0.00183254
516 0.00190177
528 0.000399372
540 0.000170969
552 0.000333745
564 0.00147563
576 0.0485028
588 0.0054024
600 0.00127785
612 0.000669754
624 0.00206805
636 0.00180117
648 0.00507457
660 0.0139972
672 0.227634
684 0.00508803
696 0.00302645
708 0.00118702
720 0.000621313
732 0.00113105
744 0.0274879
756 0.00978078
768 0.000592836
780 0.000813811
792 0.00133097
804 0.00442472
816 0.118245
828 0.0292664
840 0.00300619
852 0.000550384
864 0.000543709
876 0.000485553
888 0.000593531
900 1.83284e-05
912 0.000344533
924 0.00106369
936 0.00603959
948 0.339151
960 0.00536098
972 0.00168955
984 0.00202704
996 0.0046587
1008 0.0690521
1020 0.00172153
1032 0.00168626
1044 0.0047841
1056 0.148347
1068 0.0434564
1080 0.00281309
1092 0.00295413
1104 0.0155955
1116 0.0753379
1128 0.00179642
1140 0.0010914
1152 0.00396816
1164 0.0974009
1176 0.00117675
1188 0.000614522
1200 0.00469643
1212 0.0346682
1224 0.00210094
1236 0.00384743
1248 0.0612093
1260 0.124455
1272 0.00391832
1284 0.000793475
1296 0.00010792
1308 0.000416328
1320 0.000617871
1332 0.00598148
1344 0.0206978
1356 0.00315081
1368 0.00187842
1380 0.0491268
1392 0.0114953
1404 0.00286276
1416 0.0414936
1428 0.0799997
1440 0.00439131
1452 0.00487074
1464 0.068524
1476 0.00252531
1488 0.00812929
1500 0.112912
1512 0.0111829
1524 0.003517
1536 0.0410195
1548 0.00556673
1560 0.00242319
1572 0.0647681
1584 0.00497518
1596 0.0012183
1608 0.000592436
1620 0.00121695
1632 0.00486478
1644 0.0922603
1656 0.0065822
1668 0.00476419
1680 0.0200711
1692 0.00536782
1704 0.0507755
1716 0.110969
1728 0.00762447
1740 0.0277771
1752 0.0148106
1764 0.00115815
1776 0.000205451
1788 0.000589864
1800 0.00982316
1812 0.0302993
1824 0.00541352
1836 0.0661129
1848 0.0407748
1860 0.00178314
1872 6.35492e-05
1884 0.000675157
1896 0.0129856
1908 0.00733917
1920 0.00512491
1932 0.0194879
1944 0.00445628
1956 0.0533028
1968 0.0175064
1980 0.0156002
1992 0.0250027
2004 0.00673048
2016 0.0559383
2028 0.00901238
2040 0.00788313
2052 0.006189
2064 0.0336317
2076 0.0519092
2088 0.0054944
2100 0.00184257
2112 0.00424123
2124 0.0259979
2136 0.0193909
2148 0.0206984
2160 0.0122734
2172 0.0178367
2184 0.0361186
2196 0.00520989
2208 0.0128536
2220 0.00703529
2232 0.0178028
2244 0.00848453
2256 0.0170576
2268 0.00704986
2280 0.0292737
2292 0.0135116
2304 0.000619229
2316 0.000398318
2328 0.00729026
2340 0.00228837
2352 0.00983101
2364 0.010024
2376 0.0399948
2388 0.0168235
2400 0.0139489
2412 0.00842072
2424 0.0166936
2436 0.0125591
2448 0.011862
2460 0.0136579
2472 0.0412198
2484 0.0181749
2496 0.00307703
2508 0.00845485
2520 0.0313237
2532 0.00711466
2544 0.00746795
2556 0.007038
2568 0.00660842
2580 0.0132267
2592 0.00983145
2604 0.00156068
2616 0.00165742
2628 0.00895458
2640 0.01257
2652 0.0309557
2664 0.0103978
2676 0.000453054
2688 0.00199285
2700 0.00265854
2712 0.00851613
2724 0.0119883
2736 0.0274113
2748 0.0136249
2760 0.00538819
2772 0.0138788
2784 0.0146951
2796 0.0105395
2808 0.00724685
2820 0.016173
2832 0.0015771
2844 0.0019796
2856 0.00923524
2868 0.0070347
2880 0.00627576
2892 0.0179119
2904 0.0205178
2916 0.0119344
2928 0.00753511
2940 0.00872767
2952 0.00613615
2964 0.00665398
2976 0.00863193
2988 0.00553051
3000 0.000637948
3012 0.00465316
3024 0.00527135
3036 0.00672397
3048 0.00929183
3060 0.0061914
3072 0.00987868
3084 0.00889348
3096 0.00807712
3108 0.00588804
3120 0.0115989
3132 0.0175559
3144 0.00475442
3156 0.00318526
3168 0.00901339
3180 0.00685907
3192 0.011151
3204 0.0169396
3216 0.0079062
3228 0.000423201
3240 0.000265598
3252 0.00112743
3264 0.00642957
3276 0.00960086
3288 0.00269489
3300 0.000572043
3312 0.00408683
3324 0.0024582
3336 0.00793087
3348 0.0110982
3360 0.00967499
3372 0.00553771
3384 0.00653699
3396 0.00823688
3408 0.00640823
3420 0.00550649
3432 0.00635608
3444 0.00848658
3456 0.0105067
3468 0.00578185
3480 0.0102599
3487 0.0138209