File: constrainednmf/example_data/BaTiO3_xrd_ramp/BTO_330K_tth.xy
0.000000000000000000e+00 0.000482103
12 0.0123365
24 0.0129992
36 0.00274529
48 0.00277365
60 0.00291711
72 0.00309245
84 0.00349366
96 0.00344291
108 0.00335533
120 0.00333285
132 0.00335172
144 0.00329785
156 0.00319729
168 0.00312911
180 0.00305212
192 0.00291935
204 0.00274549
216 0.00271484
228 0.00284008
240 0.00279544
252 0.00283693
264 0.00291552
276 0.00297871
288 0.00332004
300 0.00285712
312 0.0027404
324 0.00356668
336 0.0708205
348 0.00205292
360 0.00486781
372 0.00123861
384 0.00123909
396 0.00111811
408 0.00122681
420 0.00139265
432 0.00161767
444 0.00246308
456 0.00499536
468 0.0859356
480 0.0243779
492 0.00352865
504 0.0020137
516 0.00201424
528 0.00051689
540 0.000508834
552 0.000586382
564 0.00173978
576 0.0633313
588 0.00515877
600 0.00114221
612 0.000830859
624 0.00228926
636 0.00195832
648 0.00266325
660 0.0200346
672 0.3458
684 0.00484189
696 0.00211508
708 0.00114529
720 0.00116433
732 0.00160705
744 0.0483881
756 0.00742414
768 0.00111083
780 0.00134457
792 0.00216123
804 0.00577626
816 0.191349
828 0.022317
840 0.00340602
852 0.00134254
864 0.00080323
876 0.000698429
888 0.000767522
900 0.000440663
912 0.000621481
924 0.0012486
936 0.00695389
948 0.278887
960 0.00509632
972 0.00151161
984 0.00127006
996 0.00679634
1008 0.0582585
1020 0.00139349
1032 0.00137004
1044 0.00573006
1056 0.114426
1068 0.021763
1080 0.00271402
1092 0.00215212
1104 0.0349132
1116 0.068142
1128 0.00134686
1140 0.000686247
1152 0.0045434
1164 0.0473702
1176 0.00123427
1188 0.000640075
1200 0.0062719
1212 0.0319018
1224 0.00237721
1236 0.00497251
1248 0.0962094
1260 0.0748321
1272 0.00333427
1284 0.000742915
1296 0.000377136
1308 0.000553896
1320 0.00114645
1332 0.0193711
1344 0.0427466
1356 0.00197454
1368 0.00327668
1380 0.0384671
1392 0.00557424
1404 0.00412284
1416 0.0622441
1428 0.0995881
1440 0.00434699
1452 0.00578555
1464 0.042036
1476 0.0034184
1488 0.0133587
1500 0.0854942
1512 0.00775427
1524 0.00459334
1536 0.0247657
1548 0.00392186
1560 0.00348391
1572 0.102265
1584 0.00402019
1596 0.00187181
1608 0.00125718
1620 0.00169637
1632 0.00784473
1644 0.083194
1656 0.00569652
1668 0.00710298
1680 0.0164721
1692 0.0071191
1704 0.0597446
1716 0.124998
1728 0.00809591
1740 0.0151109
1752 0.0123991
1764 0.00150526
1776 0.000886872
1788 0.00159092
1800 0.0131419
1812 0.0294268
1824 0.00880966
1836 0.028324
1848 0.0164896
1860 0.00167399
1872 7.58479e-05
1884 0.000865558
1896 0.0286401
1908 0.00705415
1920 0.00735764
1932 0.0179562
1944 0.00530694
1956 0.0524426
1968 0.00926724
1980 0.0210826
1992 0.0268695
2004 0.00872514
2016 0.0425766
2028 0.00604407
2040 0.00305723
2052 0.00797442
2064 0.0374806
2076 0.0645858
2088 0.00341937
2100 0.00138158
2112 0.0120648
2124 0.0107824
2136 0.0102734
2148 0.0161018
2160 0.0113129
2172 0.0288809
2184 0.0269618
2196 0.00601474
2208 0.0116581
2220 0.0128424
2232 0.0210704
2244 0.00636528
2256 0.0136318
2268 0.012772
2280 0.0174581
2292 0.00453182
2304 0.000557949
2316 0.00065989
2328 0.0121292
2340 0.00343486
2352 0.00583829
2364 0.0117665
2376 0.0413709
2388 0.017772
2400 0.0118325
2412 0.0100383
2424 0.0138943
2436 0.0104387
2448 0.00973225
2460 0.0180602
2472 0.0264626
2484 0.0094294
2496 0.00344159
2508 0.0134983
2520 0.0287012
2532 0.00571024
2544 0.00760697
2556 0.00455547
2568 0.0115064
2580 0.00866686
2592 0.011544
2604 0.00108891
2616 0.0020528
2628 0.00753042
2640 0.0147264
2652 0.0198264
2664 0.00356497
2676 0.00124195
2688 0.000919678
2700 0.00462787
2712 0.00671562
2724 0.0150287
2736 0.0224079
2748 0.00798295
2760 0.00814161
2772 0.00919061
2784 0.0158569
2796 0.0037686
2808 0.00669834
2820 0.0106077
2832 0.000765742
2844 0.00414618
2856 0.00504363
2868 0.00913607
2880 0.00559035
2892 0.0118976
2904 0.0232563
2916 0.0078508
2928 0.0056132
2940 0.00550159
2952 0.00366017
2964 0.00760931
2976 0.00752752
2988 0.0023516
3000 0.00197466
3012 0.00379836
3024 0.00684633
3036 0.00733045
3048 0.00466237
3060 0.0107731
3072 0.00899172
3084 0.00709234
3096 0.0140087
3108 0.00698311
3120 0.0122434
3132 0.0125343
3144 0.00394348
3156 0.00390824
3168 0.00830752
3180 0.00872554
3192 0.0125486
3204 0.0164326
3216 0.00481181
3228 0.00615177
3240 0.00192578
3252 0.00462055
3264 0.00586346
3276 0.00678237
3288 0.00136433
3300 0.00170759
3312 0.00471497
3324 0.00347957
3336 0.00549325
3348 0.00963002
3360 0.00331958
3372 0.00262638
3384 0.00421796
3396 0.00256218
3408 0.0025487
3420 0.00735811
3432 0.00751752
3444 0.0133944
3456 0.0146713
3468 0.0144366
3480 0.0243835
3487 0.000257672