File: constrainednmf/example_data/BaTiO3_xrd_ramp/BTO_240K_tth.xy
0.000000000000000000e+00 5.42018e-05
12 0.00993058
24 0.0107224
36 0.00242561
48 0.00258085
60 0.00276226
72 0.00287748
84 0.00324016
96 0.00311585
108 0.00311602
120 0.00301597
132 0.00298114
144 0.00286348
156 0.00276705
168 0.00266119
180 0.00253433
192 0.00236364
204 0.00224638
216 0.00219415
228 0.00217922
240 0.00218253
252 0.00217671
264 0.0022905
276 0.00236681
288 0.00267332
300 0.00239812
312 0.00210123
324 0.00302998
336 0.0659942
348 0.00180041
360 0.00430587
372 0.000991613
384 0.000936864
396 0.00094887
408 0.00101367
420 0.00122665
432 0.00135407
444 0.00219403
456 0.00461433
468 0.077605
480 0.0239398
492 0.00325135
504 0.00172664
516 0.00171299
528 0.000248455
540 0.000212437
552 0.000471803
564 0.0015743
576 0.0546924
588 0.00515813
600 0.00125427
612 0.000716119
624 0.0020985
636 0.00169809
648 0.00219614
660 0.0151256
672 0.228498
684 0.0044477
696 0.00191085
708 0.000925134
720 0.000846628
732 0.00116358
744 0.0327516
756 0.0082606
768 0.000612402
780 0.000805624
792 0.00181883
804 0.00466753
816 0.140657
828 0.0248803
840 0.00272304
852 0.000867784
864 0.000625769
876 0.000110105
888 0.000589759
900 9.99753e-05
912 0.000176843
924 0.000839446
936 0.00647764
948 0.339268
960 0.00499743
972 0.00129739
984 0.00132381
996 0.00465163
1008 0.0573177
1020 0.00117693
1032 0.00123937
1044 0.00474025
1056 0.165803
1068 0.0339231
1080 0.00255646
1092 0.00184378
1104 0.0182583
1116 0.0769207
1128 0.00156522
1140 0.000724633
1152 0.00400225
1164 0.0742043
1176 0.00126286
1188 0.000632812
1200 0.00543992
1212 0.033415
1224 0.00215711
1236 0.0041065
1248 0.0730755
1260 0.100312
1272 0.00359862
1284 0.000715705
1296 0.000140492
1308 0.00016663
1320 0.000801623
1332 0.00777899
1344 0.017677
1356 0.00243312
1368 0.00230606
1380 0.0502574
1392 0.00939456
1404 0.00347246
1416 0.0507433
1428 0.0821441
1440 0.00404261
1452 0.00563987
1464 0.0634683
1476 0.00315714
1488 0.00953093
1500 0.096047
1512 0.00930138
1524 0.00387094
1536 0.0383461
1548 0.00455967
1560 0.0025332
1572 0.0744287
1584 0.00432561
1596 0.00116854
1608 0.000838454
1620 0.00111045
1632 0.00576244
1644 0.0849976
1656 0.00598506
1668 0.00581827
1680 0.0183386
1692 0.00559151
1704 0.0600657
1716 0.100111
1728 0.00729808
1740 0.0288227
1752 0.0181903
1764 0.00106072
1776 0.00016306
1788 0.00108623
1800 0.011068
1812 0.0263247
1824 0.00634584
1836 0.0644058
1848 0.0370162
1860 0.00140791
1872 0.000332439
1884 0.000656393
1896 0.0137355
1908 0.00597529
1920 0.00598248
1932 0.0171347
1944 0.00448085
1956 0.0556035
1968 0.0139696
1980 0.0167541
1992 0.0254342
2004 0.00736966
2016 0.0566719
2028 0.00806056
2040 0.00709151
2052 0.0068718
2064 0.0373476
2076 0.0488701
2088 0.00405538
2100 0.00140564
2112 0.00460608
2124 0.0213184
2136 0.0203454
2148 0.0203723
2160 0.0124062
2172 0.0184929
2184 0.0311562
2196 0.0053987
2208 0.011435
2220 0.00843388
2232 0.0138805
2244 0.00713756
2256 0.0155993
2268 0.00760271
2280 0.024255
2292 0.0101671
2304 0.000723132
2316 0.000439991
2328 0.00832079
2340 0.00239576
2352 0.00907173
2364 0.00983664
2376 0.0404937
2388 0.0161924
2400 0.01272
2412 0.00902691
2424 0.0167102
2436 0.0111164
2448 0.0109906
2460 0.0145717
2472 0.0375913
2484 0.0193341
2496 0.00313495
2508 0.00938235
2520 0.0276819
2532 0.00690055
2544 0.00663594
2556 0.00752761
2568 0.00549534
2580 0.0128587
2592 0.00918577
2604 0.00159037
2616 0.00232715
2628 0.008698
2640 0.0137783
2652 0.0270417
2664 0.00809881
2676 0.000945376
2688 0.00237953
2700 0.00264194
2712 0.00825653
2724 0.0123666
2736 0.0246547
2748 0.0137388
2760 0.0047856
2772 0.0134773
2784 0.0130316
2796 0.00751073
2808 0.0079079
2820 0.0155762
2832 0.000921177
2844 0.00110249
2856 0.00815651
2868 0.00737493
2880 0.00603456
2892 0.0189199
2904 0.0181012
2916 0.00959816
2928 0.00724299
2940 0.00838506
2952 0.00625534
2964 0.00590386
2976 0.00935507
2988 0.00385848
3000 0.000227441
3012 0.00446406
3024 0.00688397
3036 0.00743891
3048 0.00926456
3060 0.00655818
3072 0.0107319
3084 0.00903928
3096 0.00783791
3108 0.00614976
3120 0.0123206
3132 0.0167672
3144 0.00538181
3156 0.0037641
3168 0.0104306
3180 0.00745957
3192 0.0126882
3204 0.0150932
3216 0.00789242
3228 0.00214381
3240 0.00198199
3252 0.0021675
3264 0.0081748
3276 0.00843483
3288 0.00352953
3300 0.00289685
3312 0.00294343
3324 0.00209699
3336 0.00837714
3348 0.00927692
3360 0.0065613
3372 0.00614605
3384 0.00516219
3396 0.00837361
3408 0.00680232
3420 0.00475618
3432 0.00721586
3444 0.0118734
3456 0.0125609
3468 0.0128454
3480 0.0220009
3487 4.01326e-05