File: constrainednmf/example_data/BaTiO3_xrd_ramp/BTO_400K_tth.xy
0.000000000000000000e+00 0.000249796
12 0.0124626
24 0.0133282
36 0.00332319
48 0.00342628
60 0.00357313
72 0.00363066
84 0.0039708
96 0.00377447
108 0.00364595
120 0.00345411
132 0.00331848
144 0.00318285
156 0.00295765
168 0.00281165
180 0.0026188
192 0.00236714
204 0.0023258
216 0.00213792
228 0.00214239
240 0.00211255
252 0.00216094
264 0.00228811
276 0.00251229
288 0.00256036
300 0.00224827
312 0.00202656
324 0.00302162
336 0.0570522
348 0.00149912
360 0.00421304
372 0.000715925
384 0.000709179
396 0.00082043
408 0.00100955
420 0.00114923
432 0.00138364
444 0.00205173
456 0.00508626
468 0.0864951
480 0.0210609
492 0.00338927
504 0.00191246
516 0.00168931
528 0.000511455
540 0.000380467
552 0.000557976
564 0.0016774
576 0.0707206
588 0.00442851
600 0.00105814
612 0.000790641
624 0.00200491
636 0.00169347
648 0.00231937
660 0.0187119
672 0.262237
684 0.00440013
696 0.00168762
708 0.000772347
720 0.000726396
732 0.00129598
744 0.0398789
756 0.00560357
768 0.000849103
780 0.000779183
792 0.00199379
804 0.0057376
816 0.175244
828 0.0181226
840 0.00304358
852 0.00113135
864 0.000640978
876 0.000460328
888 0.000703914
900 0.000320116
912 0.000288116
924 0.00118693
936 0.00722989
948 0.29432
960 0.00419346
972 0.00150251
984 0.00127244
996 0.00588221
1008 0.0414862
1020 0.00151153
1032 0.00145413
1044 0.00600001
1056 0.131157
1068 0.0154482
1080 0.0029659
1092 0.00241303
1104 0.0260813
1116 0.0359011
1128 0.00160452
1140 0.0011549
1152 0.00489474
1164 0.0310653
1176 0.00121455
1188 0.00115062
1200 0.00577169
1212 0.0222249
1224 0.00255305
1236 0.00505178
1248 0.0826846
1260 0.0419126
1272 0.00335714
1284 0.00141905
1296 0.000299202
1308 0.000347877
1320 0.000713726
1332 0.0127445
1344 0.0453592
1356 0.00168694
1368 0.00240615
1380 0.0435507
1392 0.00366481
1404 0.00378337
1416 0.0567634
1428 0.0455986
1440 0.00331435
1452 0.00523991
1464 0.0406673
1476 0.0027551
1488 0.0113294
1500 0.117602
1512 0.00560586
1524 0.00413955
1536 0.0331754
1548 0.00252478
1560 0.00267097
1572 0.106339
1584 0.00256928
1596 0.000775422
1608 0.000203601
1620 0.0011126
1632 0.00687942
1644 0.109352
1656 0.00402193
1668 0.00540612
1680 0.0179159
1692 0.00566302
1704 0.0566777
1716 0.0727736
1728 0.00629636
1740 0.0172661
1752 0.00543793
1764 0.000674539
1776 0.000444862
1788 0.000845472
1800 0.0113528
1812 0.0169649
1824 0.00703894
1836 0.0339637
1848 0.00830803
1860 0.000951325
1872 0.000361554
1884 0.00115935
1896 0.0276607
1908 0.00341588
1920 0.00539833
1932 0.0163201
1944 0.00501327
1956 0.0623788
1968 0.00626841
1980 0.0187071
1992 0.0171224
2004 0.00887302
2016 0.0467238
2028 0.00467128
2040 0.00428828
2052 0.00575313
2064 0.0334465
2076 0.037777
2088 0.00356617
2100 0.00209751
2112 0.00805586
2124 0.0161133
2136 0.00621571
2148 0.0174777
2160 0.00603878
2172 0.0271452
2184 0.0145767
2196 0.00539821
2208 0.00644417
2220 0.0110909
2232 0.0288495
2244 0.00485748
2256 0.0147833
2268 0.00821724
2280 0.026268
2292 0.00283727
2304 0.000250108
2316 0.000749692
2328 0.0129473
2340 0.00274894
2352 0.00696605
2364 0.00828287
2376 0.0442723
2388 0.00940219
2400 0.0115681
2412 0.00554092
2424 0.0149896
2436 0.00579727
2448 0.00983275
2460 0.0138451
2472 0.0334816
2484 0.00551896
2496 0.0029157
2508 0.0098271
2520 0.0277711
2532 0.0046154
2544 0.00556226
2556 0.00411012
2568 0.00885945
2580 0.00795997
2592 0.00551518
2604 0.000711857
2616 0.00170551
2628 0.00862125
2640 0.010869
2652 0.0252486
2664 0.0020164
2676 0.00110702
2688 0.000476021
2700 0.00394933
2712 0.00698438
2724 0.00979864
2736 0.023034
2748 0.00459791
2760 0.00663444
2772 0.00928832
2784 0.00955057
2796 0.0048365
2808 0.00395736
2820 0.0101061
2832 0.00124929
2844 0.00203461
2856 0.00563157
2868 0.00365105
2880 0.00574209
2892 0.0118
2904 0.0154163
2916 0.00776976
2928 0.00244431
2940 0.00542314
2952 0.00331952
2964 0.00383948
2976 0.00689566
2988 0.001399
3000 0.000990889
3012 0.00264253
3024 0.00356219
3036 0.00722474
3048 0.00352894
3060 0.00709569
3072 0.00596272
3084 0.00458403
3096 0.00870218
3108 0.00529309
3120 0.00837595
3132 0.0123159
3144 0.00338517
3156 0.0026949
3168 0.00473184
3180 0.00544581
3192 0.00997974
3204 0.0139901
3216 0.00452011
3228 0.00317548
3240 0.0025282
3252 0.00422235
3264 0.00591279
3276 0.0107457
3288 0.00296378
3300 0.00274085
3312 0.00596474
3324 0.0043201
3336 0.00845408
3348 0.00868467
3360 0.00704781
3372 0.00568467
3384 0.00692708
3396 0.00398111
3408 0.00405365
3420 0.00396673
3432 0.00612836
3444 0.00801107
3456 0.00675161
3468 0.0107057
3480 0.00622196
3487 0.00644237