File: constrainednmf/example_data/BaTiO3_xrd_ramp/BTO_430K_tth.xy
0.000000000000000000e+00 0.00025794
12 0.0119117
24 0.012624
36 0.00294379
48 0.00301337
60 0.00311204
72 0.00324111
84 0.00360768
96 0.0034292
108 0.00326721
120 0.00320333
132 0.00310601
144 0.0029891
156 0.00283297
168 0.00267463
180 0.00264268
192 0.00245541
204 0.00231334
216 0.00222987
228 0.002194
240 0.0022459
252 0.00231328
264 0.00239778
276 0.00254943
288 0.00275047
300 0.00233128
312 0.00217837
324 0.00305404
336 0.0486015
348 0.00151932
360 0.00419536
372 0.000907251
384 0.000985374
396 0.000916046
408 0.00103062
420 0.00123185
432 0.00139322
444 0.0023339
456 0.00466895
468 0.0825671
480 0.0192726
492 0.00330443
504 0.00199557
516 0.00163105
528 0.000423324
540 0.000366174
552 0.000656518
564 0.00164304
576 0.0713758
588 0.00430668
600 0.00112742
612 0.000592502
624 0.00180419
636 0.0016567
648 0.00266084
660 0.0168356
672 0.187217
684 0.00419761
696 0.00156309
708 0.000745632
720 0.000864713
732 0.0014919
744 0.0305277
756 0.00493188
768 0.000892113
780 0.00106405
792 0.00201662
804 0.00536813
816 0.147715
828 0.0163752
840 0.00307357
852 0.00115362
864 0.000821153
876 0.000626252
888 0.000471616
900 0.00038281
912 0.000294349
924 0.00145996
936 0.00706047
948 0.323666
960 0.00400271
972 0.00155248
984 0.000966808
996 0.00504199
1008 0.0298841
1020 0.00105373
1032 0.0013845
1044 0.00554738
1056 0.12668
1068 0.0129201
1080 0.00281076
1092 0.00225697
1104 0.0188109
1116 0.0239653
1128 0.00129787
1140 0.000773325
1152 0.00503646
1164 0.0262162
1176 0.00108246
1188 0.000764987
1200 0.00492185
1212 0.0140868
1224 0.00207694
1236 0.00473659
1248 0.0656627
1260 0.031729
1272 0.00326672
1284 0.000863003
1296 0.000832663
1308 0.000426696
1320 0.000854462
1332 0.00712841
1344 0.0281782
1356 0.00114676
1368 0.00208323
1380 0.0523866
1392 0.00363784
1404 0.00365317
1416 0.0390027
1428 0.0284055
1440 0.00343546
1452 0.00478886
1464 0.0320453
1476 0.00269545
1488 0.0096542
1500 0.150359
1512 0.00513677
1524 0.00351068
1536 0.0498946
1548 0.00231965
1560 0.0029022
1572 0.107152
1584 0.002679
1596 0.00132778
1608 0.000988913
1620 0.00138092
1632 0.00676209
1644 0.117489
1656 0.00401705
1668 0.00481385
1680 0.0158702
1692 0.00580983
1704 0.0425026
1716 0.0409466
1728 0.00584378
1740 0.0212979
1752 0.00410076
1764 0.00109218
1776 0.000457316
1788 0.00101227
1800 0.00874452
1812 0.0109419
1824 0.00623014
1836 0.0568163
1848 0.00649512
1860 0.000862453
1872 0.000188503
1884 0.00138584
1896 0.0243948
1908 0.00266102
1920 0.00415379
1932 0.0106135
1944 0.00436971
1956 0.0720522
1968 0.00516672
1980 0.0133301
1992 0.00971907
2004 0.00669338
2016 0.0536377
2028 0.00385152
2040 0.00583259
2052 0.00455425
2064 0.0253166
2076 0.0201969
2088 0.00233947
2100 0.00177603
2112 0.00467666
2124 0.0308214
2136 0.00505105
2148 0.019567
2160 0.00475486
2172 0.0197804
2184 0.00797516
2196 0.003938
2208 0.00430035
2220 0.00625553
2232 0.0204265
2244 0.00379196
2256 0.0151746
2268 0.00525855
2280 0.0354281
2292 0.00187793
2304 0.000388772
2316 0.000845107
2328 0.0121437
2340 0.00207809
2352 0.0105743
2364 0.00593395
2376 0.0537025
2388 0.00642784
2400 0.0157176
2412 0.00474803
2424 0.0203718
2436 0.00440081
2448 0.0132676
2460 0.00932058
2472 0.0474325
2484 0.00451793
2496 0.00308853
2508 0.00694945
2520 0.0221103
2532 0.00383929
2544 0.00379635
2556 0.00419243
2568 0.0052973
2580 0.00881904
2592 0.0026509
2604 0.00081077
2616 0.00125954
2628 0.0101581
2640 0.00709082
2652 0.0262777
2664 0.00144945
2676 0.00144233
2688 0.00105057
2700 0.00228524
2712 0.00908524
2724 0.006143
2736 0.0264156
2748 0.00393865
2760 0.00383124
2772 0.00958455
2784 0.00537158
2796 0.00779514
2808 0.00345676
2820 0.00762085
2832 0.00106917
2844 0.00148039
2856 0.00897504
2868 0.0023857
2880 0.00541203
2892 0.0118813
2904 0.00860852
2916 0.00906889
2928 0.00233281
2940 0.00524166
2952 0.00423093
2964 0.0031764
2976 0.0100657
2988 0.000920082
3000 0.000701995
3012 0.00460308
3024 0.00429939
3036 0.00659409
3048 0.004694
3060 0.00579869
3072 0.00998344
3084 0.0063544
3096 0.0063296
3108 0.00622197
3120 0.00778041
3132 0.00826917
3144 0.0028526
3156 0.00433833
3168 0.00481014
3180 0.00781295
3192 0.00766573
3204 0.00872065
3216 0.00451646
3228 0.00182581
3240 0.00301985
3252 0.00354517
3264 0.00498409
3276 0.0046988
3288 0.000586055
3300 0.00320402
3312 0.00169257
3324 0.00286829
3336 0.00609271
3348 0.00502902
3360 0.00522008
3372 0.00690411
3384 0.00534971
3396 0.00635094
3408 0.00585865
3420 0.00634455
3432 0.00529275
3444 0.0101948
3456 0.00668429
3468 0.00925382
3480 0.00372281
3487 0.00025468