File: constrainednmf/example_data/BaTiO3_xrd_ramp/BTO_175K_tth.xy
0.000000000000000000e+00 0.00106335
12 0.0103752
24 0.0110751
36 0.00279523
48 0.00287767
60 0.00293632
72 0.0030895
84 0.00349549
96 0.00344281
108 0.00343434
120 0.00342577
132 0.00344511
144 0.00350651
156 0.00335481
168 0.00329661
180 0.00325046
192 0.00314411
204 0.00301545
216 0.00301687
228 0.0029768
240 0.00295955
252 0.00293375
264 0.00296234
276 0.00298052
288 0.00331585
300 0.00303746
312 0.00282832
324 0.00371195
336 0.067094
348 0.00268823
360 0.00481753
372 0.00177179
384 0.00194435
396 0.00154353
408 0.00157896
420 0.00197759
432 0.00171393
444 0.00260751
456 0.00483315
468 0.0611379
480 0.0268454
492 0.0038614
504 0.00215405
516 0.00246475
528 0.000625291
540 0.00067652
552 0.000788098
564 0.00193227
576 0.0457154
588 0.00586516
600 0.00175663
612 0.00111387
624 0.00240175
636 0.00222016
648 0.00799084
660 0.0132795
672 0.255271
684 0.00551255
696 0.0036074
708 0.00154449
720 0.00123622
732 0.00176944
744 0.0214299
756 0.00994649
768 0.0011654
780 0.00159652
792 0.00193283
804 0.00473497
816 0.0979344
828 0.0299144
840 0.00355012
852 0.00145654
864 0.00110383
876 0.00116521
888 0.00126961
900 0.000920196
912 0.00103135
924 0.00174896
936 0.00607413
948 0.351136
960 0.00610459
972 0.00239484
984 0.00236361
996 0.00461184
1008 0.0745527
1020 0.0019052
1032 0.00164571
1044 0.00448874
1056 0.105642
1068 0.0353148
1080 0.00302557
1092 0.00274432
1104 0.0128831
1116 0.0647737
1128 0.00193988
1140 0.00118091
1152 0.00390322
1164 0.108323
1176 0.00129494
1188 0.00083082
1200 0.00395644
1212 0.0357346
1224 0.00227349
1236 0.00403538
1248 0.0470919
1260 0.109875
1272 0.00394516
1284 0.00115513
1296 0.000538759
1308 0.00081455
1320 0.00102657
1332 0.00494726
1344 0.034749
1356 0.00361903
1368 0.00255991
1380 0.0427111
1392 0.00899463
1404 0.00345714
1416 0.0290805
1428 0.0804116
1440 0.00496724
1452 0.00545858
1464 0.0704531
1476 0.00391232
1488 0.00838029
1500 0.131205
1512 0.012361
1524 0.00457757
1536 0.0427112
1548 0.00650319
1560 0.00322221
1572 0.0598223
1584 0.00651822
1596 0.00225104
1608 0.00189539
1620 0.00272097
1632 0.00558965
1644 0.0980991
1656 0.00836004
1668 0.00513764
1680 0.0246449
1692 0.00576449
1704 0.0354505
1716 0.123558
1728 0.00891419
1740 0.0227745
1752 0.0123885
1764 0.00191515
1776 0.000794026
1788 0.00156631
1800 0.00810584
1812 0.0363792
1824 0.00567269
1836 0.0579281
1848 0.0259789
1860 0.00238096
1872 0.000429943
1884 0.0011751
1896 0.0141256
1908 0.00779265
1920 0.0040792
1932 0.0228388
1944 0.00395429
1956 0.0490436
1968 0.0143295
1980 0.011457
1992 0.0292301
2004 0.00614078
2016 0.0550017
2028 0.00631279
2040 0.00669315
2052 0.0054673
2064 0.0231717
2076 0.0648349
2088 0.00512087
2100 0.00115553
2112 0.00295102
2124 0.0289869
2136 0.0115092
2148 0.0196811
2160 0.0113218
2172 0.0159134
2184 0.036935
2196 0.00427115
2208 0.0153907
2220 0.0049655
2232 0.027619
2244 0.00690392
2256 0.0187775
2268 0.00583789
2280 0.0335341
2292 0.00908383
2304 0.000782536
2316 0.000789551
2328 0.00583702
2340 0.0027102
2352 0.0106348
2364 0.0078932
2376 0.0406429
2388 0.0180722
2400 0.016526
2412 0.00812019
2424 0.0179693
2436 0.0103949
2448 0.0140665
2460 0.010886
2472 0.0477965
2484 0.0147405
2496 0.00383287
2508 0.00685813
2520 0.037822
2532 0.00762814
2544 0.00980547
2556 0.00621845
2568 0.010027
2580 0.0127024
2592 0.0135924
2604 0.0025093
2616 0.00144869
2628 0.00968073
2640 0.0098499
2652 0.038099
2664 0.00796705
2676 0.00102875
2688 0.00123112
2700 0.00280903
2712 0.00929028
2724 0.00954711
2736 0.030301
2748 0.0098716
2760 0.00698694
2772 0.011286
2784 0.0184034
2796 0.0109669
2808 0.00629471
2820 0.016208
2832 0.00196688
2844 0.000808099
2856 0.00899998
2868 0.00820774
2880 0.00707241
2892 0.014637
2904 0.0290702
2916 0.0116925
2928 0.00682747
2940 0.00964937
2952 0.00650728
2964 0.00826855
2976 0.0104766
2988 0.00552225
3000 0.000787989
3012 0.0056481
3024 0.00734531
3036 0.00908965
3048 0.00901082
3060 0.00930936
3072 0.0117387
3084 0.00988421
3096 0.0142818
3108 0.00850815
3120 0.0105697
3132 0.0255233
3144 0.00561003
3156 0.00382961
3168 0.0117593
3180 0.0113494
3192 0.0122149
3204 0.0228284
3216 0.00786979
3228 0.00279648
3240 0.00174583
3252 0.00230127
3264 0.00521573
3276 0.013197
3288 0.00207572
3300 0.00159476
3312 0.00414996
3324 0.00198668
3336 0.00390472
3348 0.010843
3360 0.00587852
3372 0.00260679
3384 0.00523471
3396 0.00829379
3408 0.00568858
3420 0.0059694
3432 0.00397209
3444 0.0136095
3456 0.0156507
3468 0.0186505
3480 0.0268984
3487 3.29889e-05