File: constrainednmf/example_data/BaTiO3_xrd_ramp/BTO_360K_tth.xy
0.000000000000000000e+00 3.53939e-05
12 0.0121878
24 0.0130249
36 0.00281405
48 0.00292224
60 0.00302039
72 0.00314111
84 0.00354834
96 0.00337759
108 0.00330303
120 0.00320541
132 0.00310016
144 0.00304302
156 0.00287391
168 0.00271594
180 0.00259743
192 0.00245938
204 0.00223885
216 0.00220545
228 0.00226004
240 0.00222856
252 0.00227039
264 0.00236842
276 0.00242228
288 0.00281176
300 0.00234739
312 0.0021642
324 0.00311246
336 0.0659659
348 0.00162935
360 0.00439472
372 0.000807986
384 0.000655542
396 0.000755416
408 0.000823479
420 0.00110747
432 0.00130732
444 0.00210957
456 0.00478518
468 0.08703
480 0.0229494
492 0.00330498
504 0.00162592
516 0.0016603
528 0.000254258
540 0.00016077
552 0.000378022
564 0.00150813
576 0.0667701
588 0.00470871
600 0.0010004
612 0.000474844
624 0.00195487
636 0.00153771
648 0.0023666
660 0.0200263
672 0.326229
684 0.00428707
696 0.00174926
708 0.000652507
720 0.000671819
732 0.00138799
744 0.0465087
756 0.0065577
768 0.000733279
780 0.0011263
792 0.00194838
804 0.0054081
816 0.190441
828 0.0202816
840 0.00307474
852 0.00132176
864 0.000613101
876 0.000138998
888 0.000429009
900 0.000109378
912 0.000482083
924 0.00125385
936 0.00737845
948 0.276328
960 0.00469161
972 0.00161145
984 0.00117606
996 0.00658813
1008 0.052873
1020 0.00126994
1032 0.00136868
1044 0.00606581
1056 0.115428
1068 0.0190366
1080 0.00266876
1092 0.00214512
1104 0.033566
1116 0.0542193
1128 0.00156465
1140 0.00104238
1152 0.00483438
1164 0.0394743
1176 0.00125066
1188 0.000937178
1200 0.00632384
1212 0.0296081
1224 0.00245016
1236 0.00496161
1248 0.094742
1260 0.0597749
1272 0.00368522
1284 0.00124845
1296 0.000873557
1308 0.000440198
1320 0.00124759
1332 0.018348
1344 0.0489067
1356 0.00195558
1368 0.00284056
1380 0.039349
1392 0.00467056
1404 0.00399003
1416 0.0625079
1428 0.0775992
1440 0.00400733
1452 0.00536952
1464 0.0422206
1476 0.00334322
1488 0.0128651
1500 0.095034
1512 0.00669104
1524 0.00428442
1536 0.0258933
1548 0.00322971
1560 0.00261136
1572 0.104711
1584 0.00345468
1596 0.00121255
1608 0.000636145
1620 0.00136396
1632 0.00759353
1644 0.0932892
1656 0.00503965
1668 0.00619057
1680 0.0164986
1692 0.00601633
1704 0.0591354
1716 0.11234
1728 0.00744834
1740 0.0147728
1752 0.00795241
1764 0.000562104
1776 4.00024e-05
1788 0.000809457
1800 0.0128124
1812 0.0248883
1824 0.00805989
1836 0.0266229
1848 0.0119505
1860 0.00105649
1872 2.24432e-05
1884 0.00109618
1896 0.0282814
1908 0.00460012
1920 0.00613268
1932 0.0178151
1944 0.00467421
1956 0.0549846
1968 0.00757158
1980 0.0202837
1992 0.0240945
2004 0.00880867
2016 0.0413955
2028 0.00501036
2040 0.00326032
2052 0.00633044
2064 0.0356929
2076 0.0570025
2088 0.00298894
2100 0.00112962
2112 0.0103957
2124 0.0109252
2136 0.00775485
2148 0.0157642
2160 0.00825746
2172 0.0287374
2184 0.023223
2196 0.00538232
2208 0.00870442
2220 0.0127357
2232 0.0254282
2244 0.00535404
2256 0.0135214
2268 0.0112556
2280 0.019969
2292 0.0033628
2304 0.000346488
2316 0.000741628
2328 0.0123038
2340 0.00221798
2352 0.00571828
2364 0.0109729
2376 0.0410544
2388 0.0135389
2400 0.0114772
2412 0.0082069
2424 0.013647
2436 0.0084221
2448 0.00930302
2460 0.0165807
2472 0.0272528
2484 0.007664
2496 0.00334973
2508 0.0122433
2520 0.0285068
2532 0.0051979
2544 0.00681998
2556 0.00464812
2568 0.0117736
2580 0.00925498
2592 0.00978125
2604 0.00122967
2616 0.00174597
2628 0.00764247
2640 0.0140179
2652 0.0209898
2664 0.00364818
2676 0.00158414
2688 0.000367058
2700 0.00481574
2712 0.00608938
2724 0.0128294
2736 0.022084
2748 0.0070281
2760 0.00788066
2772 0.00944217
2784 0.0143353
2796 0.00431974
2808 0.00559646
2820 0.0106668
2832 0.000541728
2844 0.00326
2856 0.00546718
2868 0.00722617
2880 0.00425485
2892 0.0113498
2904 0.0229324
2916 0.00722741
2928 0.00443736
2940 0.00451264
2952 0.00383846
2964 0.00481352
2976 0.00688399
2988 0.00114167
3000 0.00144143
3012 0.00212257
3024 0.00688038
3036 0.00706605
3048 0.00398846
3060 0.0106601
3072 0.00652284
3084 0.00525951
3096 0.0120069
3108 0.00506831
3120 0.00955373
3132 0.0110313
3144 0.002591
3156 0.0034139
3168 0.00782193
3180 0.00506763
3192 0.0103928
3204 0.0143223
3216 0.00234036
3228 0.00198341
3240 0.00176039
3252 0.00314827
3264 0.00537443
3276 0.00619689
3288 0.00103851
3300 0.00242277
3312 0.00272065
3324 0.00181341
3336 0.00428268
3348 0.00905922
3360 0.00419062
3372 0.00584607
3384 0.00630899
3396 0.00459007
3408 0.00571828
3420 0.00773013
3432 0.00150403
3444 0.00577233
3456 0.0110919
3468 0.0134245
3480 0.012359
3487 0.0269669