File: constrainednmf/example_data/BaTiO3_xrd_ramp/BTO_340K_tth.xy
0.000000000000000000e+00 0.000322652
12 0.0122549
24 0.0130363
36 0.00276628
48 0.0028795
60 0.00300735
72 0.00312349
84 0.00351552
96 0.00342428
108 0.0033847
120 0.00328551
132 0.00336373
144 0.00330602
156 0.00322781
168 0.00312898
180 0.00298918
192 0.00283962
204 0.00273937
216 0.00273927
228 0.00266602
240 0.00268975
252 0.00283136
264 0.00286521
276 0.00309631
288 0.00323654
300 0.00286727
312 0.0025903
324 0.00365957
336 0.0697203
348 0.0020173
360 0.00471205
372 0.00122872
384 0.00109023
396 0.00107911
408 0.00124058
420 0.00142555
432 0.00151891
444 0.00232601
456 0.00516634
468 0.0865784
480 0.0241348
492 0.00356807
504 0.00191841
516 0.00200754
528 0.000469437
540 0.000391287
552 0.000611024
564 0.00181144
576 0.064633
588 0.0049507
600 0.00127282
612 0.000889866
624 0.00216097
636 0.00198026
648 0.00257885
660 0.0202615
672 0.343722
684 0.00467594
696 0.00202764
708 0.00111412
720 0.000963156
732 0.00175676
744 0.0482234
756 0.00738713
768 0.00145261
780 0.00129705
792 0.00246022
804 0.00587811
816 0.191774
828 0.0218364
840 0.00366033
852 0.00150749
864 0.000960311
876 0.000650964
888 0.000956494
900 0.00042739
912 0.000573576
924 0.00143224
936 0.00743107
948 0.276689
960 0.00476131
972 0.00159221
984 0.00132971
996 0.00689346
1008 0.0572754
1020 0.00141528
1032 0.00141055
1044 0.0057837
1056 0.113541
1068 0.0209288
1080 0.00256852
1092 0.00222202
1104 0.0349742
1116 0.0642225
1128 0.00121696
1140 0.00102182
1152 0.00487565
1164 0.0444733
1176 0.00129595
1188 0.000756992
1200 0.00657453
1212 0.0313782
1224 0.00221976
1236 0.00448398
1248 0.096465
1260 0.0705045
1272 0.00329745
1284 0.00106287
1296 0.000298057
1308 0.00039198
1320 0.000827296
1332 0.0192009
1344 0.0446123
1356 0.00169563
1368 0.00300713
1380 0.0383079
1392 0.00533432
1404 0.00367833
1416 0.0626165
1428 0.0935643
1440 0.00418585
1452 0.00572072
1464 0.0425597
1476 0.00333658
1488 0.0132876
1500 0.0874891
1512 0.00715635
1524 0.00491889
1536 0.0247853
1548 0.00362931
1560 0.00338387
1572 0.103302
1584 0.00374081
1596 0.00125414
1608 0.00118131
1620 0.0018718
1632 0.00812979
1644 0.0859748
1656 0.00567706
1668 0.00674269
1680 0.0166072
1692 0.00648638
1704 0.0600326
1716 0.122453
1728 0.0081241
1740 0.0152592
1752 0.010469
1764 0.0014961
1776 0.00116564
1788 0.00111348
1800 0.0132181
1812 0.0284288
1824 0.00844855
1836 0.0269523
1848 0.0149199
1860 0.00135216
1872 0.000128939
1884 0.000971712
1896 0.0285781
1908 0.00606645
1920 0.00701763
1932 0.0176204
1944 0.00526014
1956 0.0528665
1968 0.00915375
1980 0.0212918
1992 0.0263771
2004 0.00833319
2016 0.0424181
2028 0.00571715
2040 0.00335466
2052 0.007825
2064 0.0361914
2076 0.063302
2088 0.00298097
2100 0.00199407
2112 0.0116879
2124 0.0103635
2136 0.00922584
2148 0.0153983
2160 0.0104598
2172 0.0284467
2184 0.0264477
2196 0.0055397
2208 0.0112423
2220 0.0128788
2232 0.0220538
2244 0.00614902
2256 0.013401
2268 0.0123722
2280 0.0177782
2292 0.00437722
2304 0.000764768
2316 0.0005369
2328 0.0123233
2340 0.00331536
2352 0.00570225
2364 0.0108467
2376 0.0414819
2388 0.0165343
2400 0.0115418
2412 0.00984299
2424 0.0137233
2436 0.00990616
2448 0.00995798
2460 0.0177975
2472 0.0263443
2484 0.0087871
2496 0.00364765
2508 0.0132446
2520 0.028338
2532 0.00485928
2544 0.00738653
2556 0.0041409
2568 0.0110867
2580 0.00893202
2592 0.0112172
2604 0.00143725
2616 0.00191088
2628 0.00877555
2640 0.0138201
2652 0.019303
2664 0.00385005
2676 0.00174512
2688 0.000489717
2700 0.00421718
2712 0.00744258
2724 0.0134084
2736 0.022799
2748 0.00775359
2760 0.00873842
2772 0.00908196
2784 0.0153283
2796 0.00347122
2808 0.00615288
2820 0.0101456
2832 0.00100997
2844 0.00376459
2856 0.00559358
2868 0.0094845
2880 0.00430856
2892 0.011241
2904 0.0223182
2916 0.00789977
2928 0.00483262
2940 0.00535533
2952 0.00455812
2964 0.00641289
2976 0.00733454
2988 0.00179677
3000 0.0015051
3012 0.00315356
3024 0.0058863
3036 0.0072264
3048 0.00354462
3060 0.0104243
3072 0.00864739
3084 0.00685105
3096 0.0123475
3108 0.00647331
3120 0.0110863
3132 0.0116076
3144 0.00294918
3156 0.00347809
3168 0.00819621
3180 0.00574288
3192 0.0102403
3204 0.0159534
3216 0.00380264
3228 0.00426404
3240 0.00178554
3252 0.0037937
3264 0.0074449
3276 0.00775847
3288 0.00165218
3300 0.00236601
3312 0.00385346
3324 0.00316392
3336 0.00262717
3348 0.0104657
3360 0.00359214
3372 0.00406282
3384 0.00684827
3396 0.00634188
3408 0.00514961
3420 0.00939794
3432 0.00781687
3444 0.010338
3456 0.0147913
3468 0.0165167
3480 0.0175661
3487 0.00024579