File: constrainednmf/example_data/BaTiO3_xrd_ramp/BTO_310K_tth.xy
0.000000000000000000e+00 0.000790119
12 0.0126467
24 0.0135034
36 0.00357434
48 0.00366536
60 0.0038288
72 0.00403239
84 0.00439448
96 0.00421092
108 0.004082
120 0.00403978
132 0.00385201
144 0.00375111
156 0.00360279
168 0.00351444
180 0.00328888
192 0.0031893
204 0.00304535
216 0.00291466
228 0.00285129
240 0.00285223
252 0.00286217
264 0.00297599
276 0.0030442
288 0.00322626
300 0.00294184
312 0.00276515
324 0.00370065
336 0.0720137
348 0.00221862
360 0.00504032
372 0.00143361
384 0.00145803
396 0.0014424
408 0.00159089
420 0.00181691
432 0.00193874
444 0.00276474
456 0.00547051
468 0.084259
480 0.0251755
492 0.00400188
504 0.00244879
516 0.00226352
528 0.000886969
540 0.000768449
552 0.000865306
564 0.00223
576 0.0615259
588 0.00531855
600 0.00164956
612 0.00122715
624 0.00257939
636 0.0021433
648 0.00281709
660 0.0199905
672 0.340836
684 0.00495725
696 0.00249374
708 0.00158365
720 0.00142066
732 0.00219775
744 0.0471548
756 0.00819222
768 0.001623
780 0.00158072
792 0.00243784
804 0.00631067
816 0.185325
828 0.0234681
840 0.00372265
852 0.00175846
864 0.0012868
876 0.00110448
888 0.0011348
900 0.000728055
912 0.00117403
924 0.00168454
936 0.00763
948 0.288425
960 0.00556896
972 0.0019745
984 0.00211342
996 0.00707837
1008 0.0601081
1020 0.00185809
1032 0.00192379
1044 0.00611293
1056 0.120796
1068 0.0242896
1080 0.00327608
1092 0.00296621
1104 0.0344294
1116 0.0762451
1128 0.00202743
1140 0.00144882
1152 0.00502411
1164 0.0535332
1176 0.00141339
1188 0.00146344
1200 0.0068468
1212 0.0330788
1224 0.00279765
1236 0.00516717
1248 0.0933371
1260 0.0839632
1272 0.00427298
1284 0.00155075
1296 0.00112479
1308 0.000968658
1320 0.00125751
1332 0.0183897
1344 0.0369221
1356 0.0023199
1368 0.00307402
1380 0.0396544
1392 0.00628516
1404 0.00442269
1416 0.0606307
1428 0.107222
1440 0.00427581
1452 0.00588697
1464 0.0441067
1476 0.00329656
1488 0.01318
1500 0.0818653
1512 0.0081052
1524 0.00461903
1536 0.0258043
1548 0.00405128
1560 0.00327788
1572 0.0984272
1584 0.00421355
1596 0.0011586
1608 0.00156714
1620 0.00183348
1632 0.00788836
1644 0.078941
1656 0.00571185
1668 0.00664043
1680 0.0164791
1692 0.00680865
1704 0.0596519
1716 0.122093
1728 0.00838791
1740 0.017058
1752 0.0148018
1764 0.00179544
1776 0.00124525
1788 0.00138988
1800 0.013278
1812 0.0305922
1824 0.00875357
1836 0.0327142
1848 0.0198269
1860 0.00182384
1872 0.000558523
1884 0.00117748
1896 0.0266508
1908 0.00836909
1920 0.00706877
1932 0.0172763
1944 0.00581996
1956 0.0524546
1968 0.0107651
1980 0.0209533
1992 0.0281637
2004 0.00854479
2016 0.0464333
2028 0.00692868
2040 0.0042387
2052 0.00934676
2064 0.0375032
2076 0.0653813
2088 0.00378985
2100 0.00191269
2112 0.011872
2124 0.0121842
2136 0.0118343
2148 0.0166663
2160 0.0135905
2172 0.0278618
2184 0.026843
2196 0.00605973
2208 0.0124441
2220 0.012767
2232 0.0185066
2244 0.00685534
2256 0.0142344
2268 0.012852
2280 0.0171544
2292 0.00553781
2304 0.000948999
2316 0.000813584
2328 0.0116627
2340 0.00336929
2352 0.00597907
2364 0.0117159
2376 0.0412887
2388 0.0202946
2400 0.0126201
2412 0.0108448
2424 0.0133756
2436 0.0112136
2448 0.009351
2460 0.0186418
2472 0.0280481
2484 0.0117308
2496 0.00408519
2508 0.0127939
2520 0.0295381
2532 0.00618178
2544 0.00707941
2556 0.00475248
2568 0.0109997
2580 0.00930967
2592 0.0128039
2604 0.00182098
2616 0.00177913
2628 0.00749241
2640 0.0146055
2652 0.0208437
2664 0.00443319
2676 0.00163018
2688 0.00186752
2700 0.00411736
2712 0.00787391
2724 0.0152146
2736 0.0226831
2748 0.00976748
2760 0.00815444
2772 0.0103007
2784 0.0154878
2796 0.00489709
2808 0.00791111
2820 0.0122785
2832 0.00103121
2844 0.00394075
2856 0.00618653
2868 0.0112138
2880 0.00667883
2892 0.0145901
2904 0.0241767
2916 0.0081934
2928 0.00630617
2940 0.00620846
2952 0.00497795
2964 0.00724649
2976 0.00716861
2988 0.00420808
3000 0.00225987
3012 0.00348345
3024 0.00692739
3036 0.00671848
3048 0.00480715
3060 0.00933029
3072 0.00783185
3084 0.00854365
3096 0.0110437
3108 0.00718517
3120 0.0115816
3132 0.0110987
3144 0.00449502
3156 0.00423195
3168 0.00706242
3180 0.00649248
3192 0.0121333
3204 0.016242
3216 0.00486807
3228 0.00477527
3240 0.00280745
3252 0.00400654
3264 0.00680782
3276 0.00757061
3288 0.00298765
3300 0.00151896
3312 0.00537916
3324 0.00498201
3336 0.00460888
3348 0.008271
3360 0.00371153
3372 0.00338324
3384 0.0062205
3396 0.00263748
3408 0.00611835
3420 0.00480383
3432 0.0047549
3444 0.0112763
3456 0.0165203
3468 0.00591285
3480 0.0129424
3487 0.0171979