File: constrainednmf/example_data/BaTiO3_xrd_ramp/BTO_370K_tth.xy
0.000000000000000000e+00 4.9343e-05
12 0.0123488
24 0.0132726
36 0.00302221
48 0.00313486
60 0.00324023
72 0.00337724
84 0.00374379
96 0.00356053
108 0.00337326
120 0.00331256
132 0.00321268
144 0.00303624
156 0.0028783
168 0.00271444
180 0.00251935
192 0.00227621
204 0.00218072
216 0.00208297
228 0.00203708
240 0.00199855
252 0.00204769
264 0.00218934
276 0.00236987
288 0.00260462
300 0.00218099
312 0.0019966
324 0.00300165
336 0.0639813
348 0.00147109
360 0.00431372
372 0.000572257
384 0.000712982
396 0.000754191
408 0.000737435
420 0.000959223
432 0.00106802
444 0.00221005
456 0.00489956
468 0.0871469
480 0.022516
492 0.00326773
504 0.00161687
516 0.00165531
528 0.000171458
540 0.000143052
552 0.000248105
564 0.00146076
576 0.067836
588 0.00473332
600 0.00104188
612 0.000609187
624 0.00202104
636 0.00154999
648 0.00235189
660 0.0197588
672 0.315161
684 0.00436208
696 0.00180348
708 0.000757373
720 0.00065151
732 0.00153183
744 0.0452248
756 0.00628953
768 0.000742003
780 0.000667053
792 0.00163745
804 0.00540865
816 0.188452
828 0.0198663
840 0.00326013
852 0.00106435
864 0.00058717
876 0.00051944
888 0.000479677
900 0.000208375
912 0.000252642
924 0.00123786
936 0.00740283
948 0.279204
960 0.00463911
972 0.00147443
984 0.00127777
996 0.0064643
1008 0.0504778
1020 0.00146494
1032 0.00163042
1044 0.00596523
1056 0.118111
1068 0.0180825
1080 0.00281119
1092 0.00221178
1104 0.0314833
1116 0.0494852
1128 0.0014891
1140 0.000911137
1152 0.00482754
1164 0.0372293
1176 0.00122881
1188 0.00108407
1200 0.00617464
1212 0.0283025
1224 0.0024362
1236 0.00501595
1248 0.0926958
1260 0.0551932
1272 0.00372303
1284 0.00106992
1296 0.00048722
1308 0.000493337
1320 0.000884327
1332 0.0173701
1344 0.0493799
1356 0.00178558
1368 0.00263426
1380 0.0398203
1392 0.00430693
1404 0.00413309
1416 0.0622115
1428 0.0693553
1440 0.00332697
1452 0.00511842
1464 0.0425396
1476 0.00285311
1488 0.0121999
1500 0.0992029
1512 0.00636466
1524 0.00395627
1536 0.027005
1548 0.00282307
1560 0.00216458
1572 0.105022
1584 0.00301357
1596 0.000717902
1608 0.000428128
1620 0.00123756
1632 0.00734935
1644 0.0976088
1656 0.00424037
1668 0.0059623
1680 0.0167497
1692 0.00580605
1704 0.058673
1716 0.104403
1728 0.00714728
1740 0.0150708
1752 0.00740257
1764 0.000703888
1776 0.000395868
1788 0.000750159
1800 0.0123972
1812 0.0232665
1824 0.0078189
1836 0.0272953
1848 0.0110365
1860 0.000849031
1872 0.000284138
1884 0.00053708
1896 0.028542
1908 0.00456908
1920 0.00576878
1932 0.0178956
1944 0.00495264
1956 0.05658
1968 0.00725716
1980 0.0204949
1992 0.0233575
2004 0.00845387
2016 0.0424575
2028 0.00508798
2040 0.00317643
2052 0.00632302
2064 0.0353676
2076 0.0538158
2088 0.00307641
2100 0.00145323
2112 0.0104345
2124 0.0115309
2136 0.00758137
2148 0.0165895
2160 0.00816537
2172 0.0289153
2184 0.0219167
2196 0.00604289
2208 0.00792914
2220 0.0126565
2232 0.0273717
2244 0.00580901
2256 0.0139105
2268 0.0108401
2280 0.0210259
2292 0.00334024
2304 0.000594251
2316 0.0003815
2328 0.0127186
2340 0.0023926
2352 0.00573133
2364 0.0103418
2376 0.0418501
2388 0.0121566
2400 0.0112333
2412 0.00699166
2424 0.0145255
2436 0.00768896
2448 0.00912018
2460 0.016039
2472 0.0277565
2484 0.00688491
2496 0.00300476
2508 0.0116299
2520 0.0281097
2532 0.0041569
2544 0.00673774
2556 0.00375117
2568 0.0104881
2580 0.00802472
2592 0.00855625
2604 0.00122599
2616 0.00156999
2628 0.00760748
2640 0.0130798
2652 0.0211801
2664 0.00237218
2676 0.00119611
2688 0.00122579
2700 0.00461351
2712 0.00700996
2724 0.0118502
2736 0.0219215
2748 0.00652683
2760 0.00808915
2772 0.00869504
2784 0.0128658
2796 0.003557
2808 0.00494974
2820 0.0100208
2832 0.000400689
2844 0.00300596
2856 0.0049817
2868 0.00685973
2880 0.00506391
2892 0.0109345
2904 0.0216693
2916 0.00744836
2928 0.00478213
2940 0.0047894
2952 0.00389033
2964 0.00545651
2976 0.00762041
2988 0.00145786
3000 0.0013989
3012 0.00392258
3024 0.00655172
3036 0.0083838
3048 0.00333185
3060 0.0104509
3072 0.00831979
3084 0.0059661
3096 0.0107368
3108 0.00630612
3120 0.0102283
3132 0.0126638
3144 0.0030457
3156 0.00393975
3168 0.00700681
3180 0.00570382
3192 0.00995188
3204 0.0142587
3216 0.00323471
3228 0.00364728
3240 0.00140532
3252 0.00118288
3264 0.00423049
3276 0.00837538
3288 0.00144256
3300 0.00370637
3312 0.0032843
3324 0.00451659
3336 0.00532954
3348 0.00938359
3360 0.00515276
3372 0.00300898
3384 0.00297793
3396 0.00257894
3408 0.00221321
3420 0.00214784
3432 0.00157772
3444 0.00962155
3456 0.00671069
3468 0.00856871
3480 0.0132855
3487 0.0195531