File: constrainednmf/example_data/BaTiO3_xrd_ramp/BTO_265K_tth.xy
0.000000000000000000e+00 0.00108325
12 0.0112191
24 0.0120187
36 0.00377758
48 0.00394721
60 0.00416338
72 0.00429207
84 0.00455231
96 0.00448258
108 0.00434491
120 0.00418873
132 0.00410086
144 0.00393723
156 0.00370443
168 0.00357764
180 0.00343387
192 0.00328416
204 0.00306828
216 0.00299047
228 0.00296758
240 0.00291625
252 0.00295476
264 0.00293885
276 0.00307613
288 0.0034238
300 0.00306635
312 0.00286698
324 0.00380884
336 0.0655004
348 0.00245565
360 0.00513872
372 0.0017823
384 0.00169654
396 0.0017859
408 0.00178398
420 0.00212572
432 0.00215951
444 0.00300432
456 0.00551316
468 0.0796232
480 0.0240293
492 0.00421625
504 0.00266956
516 0.00266153
528 0.00121562
540 0.0013069
552 0.00144481
564 0.00241549
576 0.0577255
588 0.00577347
600 0.00196512
612 0.00157074
624 0.00285086
636 0.00242811
648 0.00305489
660 0.0167656
672 0.246336
684 0.00513073
696 0.00294356
708 0.00162574
720 0.00176517
732 0.00207405
744 0.0355067
756 0.00850782
768 0.00176356
780 0.00177955
792 0.00269298
804 0.00586151
816 0.148478
828 0.0241051
840 0.00378698
852 0.0018788
864 0.00171397
876 0.0013026
888 0.00143733
900 0.00106988
912 0.00121114
924 0.00207024
936 0.00739522
948 0.337101
960 0.00549555
972 0.00230865
984 0.00205444
996 0.0056366
1008 0.0544697
1020 0.00224317
1032 0.00207268
1044 0.00594785
1056 0.162289
1068 0.0292783
1080 0.00374115
1092 0.00314621
1104 0.0212526
1116 0.0753561
1128 0.00243313
1140 0.00174964
1152 0.00507462
1164 0.0655899
1176 0.00216373
1188 0.00176303
1200 0.00649847
1212 0.0329224
1224 0.0029699
1236 0.00522839
1248 0.0759347
1260 0.087456
1272 0.0046326
1284 0.00177274
1296 0.00125397
1308 0.00134719
1320 0.00139779
1332 0.00963183
1344 0.0201504
1356 0.00281672
1368 0.00290145
1380 0.0493409
1392 0.00813411
1404 0.00413726
1416 0.0530804
1428 0.0868283
1440 0.00448607
1452 0.00623096
1464 0.0597172
1476 0.00344533
1488 0.010485
1500 0.0914312
1512 0.00928736
1524 0.00460753
1536 0.0364659
1548 0.00470573
1560 0.00347748
1572 0.0797585
1584 0.00452544
1596 0.00170273
1608 0.0016635
1620 0.00206115
1632 0.00679746
1644 0.0832544
1656 0.00627131
1668 0.00611113
1680 0.0187919
1692 0.00620657
1704 0.0608641
1716 0.0974113
1728 0.00813233
1740 0.0276772
1752 0.0184028
1764 0.00192434
1776 0.00130396
1788 0.00165288
1800 0.0122071
1812 0.0260393
1824 0.00720969
1836 0.0601888
1848 0.0299779
1860 0.00218336
1872 0.00114048
1884 0.00168745
1896 0.0157998
1908 0.00685055
1920 0.00661354
1932 0.0175254
1944 0.00528866
1956 0.0566789
1968 0.0127904
1980 0.0179963
1992 0.0269724
2004 0.00850313
2016 0.0572605
2028 0.00807533
2040 0.00764165
2052 0.0083013
2064 0.0375322
2076 0.0509367
2088 0.00469137
2100 0.00267438
2112 0.00642186
2124 0.0206098
2136 0.018102
2148 0.0203354
2160 0.0133758
2172 0.0208033
2184 0.0284774
2196 0.00566661
2208 0.011824
2220 0.009221
2232 0.0148287
2244 0.00733176
2256 0.0160824
2268 0.00850926
2280 0.0231659
2292 0.00830576
2304 0.00142806
2316 0.000854528
2328 0.00967684
2340 0.00298787
2352 0.00919277
2364 0.0105512
2376 0.0415999
2388 0.0174443
2400 0.0134302
2412 0.0102739
2424 0.0168049
2436 0.0103719
2448 0.0108587
2460 0.015277
2472 0.0366263
2484 0.0179668
2496 0.00383258
2508 0.0104978
2520 0.028046
2532 0.00680263
2544 0.00734422
2556 0.00774707
2568 0.00677698
2580 0.0128057
2592 0.00966291
2604 0.0020836
2616 0.00245299
2628 0.00912506
2640 0.0137464
2652 0.0263102
2664 0.00680645
2676 0.00138295
2688 0.00169172
2700 0.00297217
2712 0.00812516
2724 0.0129796
2736 0.02394
2748 0.013053
2760 0.00528367
2772 0.0132993
2784 0.012539
2796 0.00795786
2808 0.00766186
2820 0.0149348
2832 0.00196737
2844 0.00282012
2856 0.00768895
2868 0.00930946
2880 0.00553195
2892 0.0175859
2904 0.0187142
2916 0.0100677
2928 0.0065458
2940 0.00936282
2952 0.00629952
2964 0.00662387
2976 0.00806409
2988 0.00451454
3000 0.000917539
3012 0.0043086
3024 0.00783773
3036 0.00667611
3048 0.00729663
3060 0.00722981
3072 0.00864179
3084 0.00973274
3096 0.00842551
3108 0.00527906
3120 0.0109052
3132 0.0154195
3144 0.00627995
3156 0.00407006
3168 0.0100654
3180 0.00863337
3192 0.0140233
3204 0.0145455
3216 0.00738213
3228 0.00252501
3240 0.00316026
3252 0.00262165
3264 0.00815488
3276 0.0103559
3288 0.00381299
3300 0.00410731
3312 0.00274121
3324 0.00509385
3336 0.00879899
3348 0.0099818
3360 0.00765032
3372 0.00614026
3384 0.00623584
3396 0.00765203
3408 0.00565642
3420 0.00357809
3432 0.0037359
3444 0.00499649
3456 0.00866753
3468 0.00892487
3480 0.00953936
3487 0.0016804