File: constrainednmf/example_data/BaTiO3_xrd_ramp/BTO_425K_tth.xy
0.000000000000000000e+00 0.000301793
12 0.0120294
24 0.0128109
36 0.0030653
48 0.00308435
60 0.00323478
72 0.00335655
84 0.00369206
96 0.00351923
108 0.00339211
120 0.0032479
132 0.00318917
144 0.00296339
156 0.00288342
168 0.00274256
180 0.0025898
192 0.00246867
204 0.00236136
216 0.00230577
228 0.00218502
240 0.0022303
252 0.00234888
264 0.00230035
276 0.002535
288 0.00274763
300 0.00237037
312 0.00216171
324 0.00296571
336 0.0496008
348 0.00157699
360 0.00413292
372 0.000899865
384 0.000975186
396 0.000945188
408 0.000991229
420 0.00110006
432 0.00132578
444 0.00215886
456 0.00485765
468 0.0823807
480 0.0195052
492 0.00328521
504 0.00195339
516 0.00170082
528 0.000500197
540 0.000493016
552 0.000627546
564 0.00173129
576 0.0712468
588 0.00428718
600 0.00105617
612 0.00073524
624 0.00202691
636 0.00174531
648 0.0023088
660 0.0169545
672 0.197143
684 0.00440605
696 0.0019327
708 0.00094493
720 0.000932714
732 0.00149026
744 0.0316609
756 0.00503984
768 0.00101065
780 0.00116784
792 0.00207805
804 0.00556058
816 0.151247
828 0.0165709
840 0.00297589
852 0.00126779
864 0.00077316
876 0.000758782
888 0.000658372
900 0.000520728
912 0.000472251
924 0.00147247
936 0.0073307
948 0.318972
960 0.00435889
972 0.00166337
984 0.00110783
996 0.00524787
1008 0.031446
1020 0.00158551
1032 0.00154782
1044 0.00578909
1056 0.129429
1068 0.0132559
1080 0.00245747
1092 0.00232484
1104 0.01974
1116 0.0253391
1128 0.00160114
1140 0.0010507
1152 0.0050302
1164 0.0270404
1176 0.00129378
1188 0.000997291
1200 0.0052023
1212 0.015641
1224 0.00227206
1236 0.00479697
1248 0.0677914
1260 0.0330636
1272 0.00338113
1284 0.00100921
1296 0.000363449
1308 0.000465349
1320 0.00108462
1332 0.00791855
1344 0.0309981
1356 0.00169646
1368 0.00248608
1380 0.051069
1392 0.00360785
1404 0.00338292
1416 0.0414639
1428 0.0297215
1440 0.0031629
1452 0.00513543
1464 0.0332864
1476 0.00274795
1488 0.00962647
1500 0.145147
1512 0.00522483
1524 0.0038171
1536 0.0467058
1548 0.00242823
1560 0.00282061
1572 0.107161
1584 0.00304228
1596 0.000830005
1608 0.000828363
1620 0.00136474
1632 0.00687439
1644 0.117048
1656 0.00433988
1668 0.00499901
1680 0.0164209
1692 0.00592284
1704 0.0451892
1716 0.0440655
1728 0.00574577
1740 0.0211955
1752 0.00452411
1764 0.00124461
1776 0.000651204
1788 0.00117229
1800 0.00968688
1812 0.0117301
1824 0.00631615
1836 0.0525542
1848 0.00706529
1860 0.000928294
1872 0.000379417
1884 0.000896015
1896 0.0249744
1908 0.00265655
1920 0.00428628
1932 0.011379
1944 0.00443544
1956 0.0702907
1968 0.00571107
1980 0.0140885
1992 0.0110746
2004 0.00713713
2016 0.0527098
2028 0.00382475
2040 0.00523751
2052 0.00508303
2064 0.027097
2076 0.0222903
2088 0.00290332
2100 0.00199006
2112 0.0050588
2124 0.0278354
2136 0.0050785
2148 0.0188915
2160 0.00495639
2172 0.0210113
2184 0.00859964
2196 0.00456852
2208 0.00423861
2220 0.00698338
2232 0.0222427
2244 0.00374387
2256 0.0150588
2268 0.00506928
2280 0.0344705
2292 0.00234399
2304 0.000232357
2316 0.000824463
2328 0.0124792
2340 0.00222138
2352 0.00974811
2364 0.00664721
2376 0.0515311
2388 0.00716491
2400 0.0148483
2412 0.00485104
2424 0.0194163
2436 0.00487762
2448 0.0128029
2460 0.00937904
2472 0.0457339
2484 0.00488499
2496 0.00291995
2508 0.00763161
2520 0.0240105
2532 0.00395078
2544 0.00435677
2556 0.00510453
2568 0.00549766
2580 0.00940662
2592 0.00357674
2604 0.00133601
2616 0.00150183
2628 0.0101956
2640 0.00780356
2652 0.0269907
2664 0.0014817
2676 0.000676623
2688 0.000616025
2700 0.00228347
2712 0.00897147
2724 0.00688115
2736 0.0267463
2748 0.00408624
2760 0.00448046
2772 0.00999517
2784 0.00529787
2796 0.00735545
2808 0.00342691
2820 0.00876088
2832 0.00122198
2844 0.00138086
2856 0.00841981
2868 0.00295034
2880 0.00557742
2892 0.0106387
2904 0.00888644
2916 0.00906606
2928 0.00321116
2940 0.00475355
2952 0.00332561
2964 0.00222615
2976 0.00943819
2988 0.000696812
3000 0.00136112
3012 0.00415953
3024 0.00341138
3036 0.00667482
3048 0.00422237
3060 0.00568429
3072 0.00906744
3084 0.00445328
3096 0.00576905
3108 0.00512291
3120 0.00620015
3132 0.00871656
3144 0.00201623
3156 0.00272825
3168 0.00447373
3180 0.00580908
3192 0.0072439
3204 0.00963885
3216 0.00370603
3228 0.000511127
3240 0.00125323
3252 0.0033922
3264 0.00418328
3276 0.00671875
3288 0.00175213
3300 0.0033786
3312 0.00282924
3324 0.00374361
3336 0.00728466
3348 0.00471461
3360 0.00764248
3372 0.00241864
3384 0.00442157
3396 0.00769033
3408 0.00310532
3420 0.00152396
3432 0.00333383
3444 0.00858462
3456 0.00065511
3468 0.00540285
3480 0.015203
3487 0.0117931