File: constrainednmf/example_data/BaTiO3_xrd_ramp/BTO_320K_tth.xy
0.000000000000000000e+00 0.000644942
12 0.0123716
24 0.0130269
36 0.00276082
48 0.00286028
60 0.00285961
72 0.0030729
84 0.00348506
96 0.00348701
108 0.00336077
120 0.00337868
132 0.00343952
144 0.00338417
156 0.00331756
168 0.0033217
180 0.00322563
192 0.00311066
204 0.00295228
216 0.00297375
228 0.00292914
240 0.00300009
252 0.00302677
264 0.00312373
276 0.00321559
288 0.00355919
300 0.0031574
312 0.00283737
324 0.00383484
336 0.0718246
348 0.0021418
360 0.00501658
372 0.00139726
384 0.0013314
396 0.00134722
408 0.00140154
420 0.00156613
432 0.00178555
444 0.00258013
456 0.00509312
468 0.084928
480 0.0246845
492 0.00363991
504 0.001955
516 0.00191449
528 0.000493282
540 0.000414781
552 0.000578753
564 0.0018246
576 0.0621493
588 0.00525982
600 0.0013723
612 0.000817533
624 0.00222526
636 0.00191463
648 0.00272847
660 0.0199975
672 0.345114
684 0.00505285
696 0.00239944
708 0.00131875
720 0.00109072
732 0.00185364
744 0.0477984
756 0.00798191
768 0.00144349
780 0.00122722
792 0.00232672
804 0.00570732
816 0.189156
828 0.022951
840 0.00351789
852 0.00157063
864 0.00112712
876 0.000894436
888 0.000972608
900 0.000648729
912 0.000737375
924 0.00145167
936 0.00726512
948 0.283314
960 0.00501268
972 0.00150997
984 0.0014779
996 0.00690343
1008 0.0593991
1020 0.00145595
1032 0.00172689
1044 0.00609129
1056 0.116472
1068 0.022961
1080 0.00297909
1092 0.00254755
1104 0.0348796
1116 0.0728384
1128 0.00163581
1140 0.00109772
1152 0.00475045
1164 0.0502843
1176 0.00105383
1188 0.00072617
1200 0.00625626
1212 0.0321367
1224 0.00237051
1236 0.00494952
1248 0.0950253
1260 0.0800344
1272 0.00380126
1284 0.00121907
1296 0.00061171
1308 0.000583411
1320 0.00109741
1332 0.0190042
1344 0.0398638
1356 0.00218332
1368 0.00326172
1380 0.0388613
1392 0.00600161
1404 0.00435212
1416 0.0616946
1428 0.104679
1440 0.00441668
1452 0.00605755
1464 0.0435095
1476 0.00340394
1488 0.0132966
1500 0.0837383
1512 0.00831855
1524 0.0050216
1536 0.0248555
1548 0.00419991
1560 0.00368429
1572 0.100652
1584 0.00422039
1596 0.00159749
1608 0.00153895
1620 0.00236894
1632 0.00812074
1644 0.0813876
1656 0.0059762
1668 0.0069252
1680 0.0163236
1692 0.00696023
1704 0.060309
1716 0.124656
1728 0.00839662
1740 0.0158906
1752 0.0137351
1764 0.00198033
1776 0.00115221
1788 0.00154746
1800 0.0131428
1812 0.0302327
1824 0.00875581
1836 0.0298077
1848 0.018359
1860 0.00151686
1872 0.000730944
1884 0.0011022
1896 0.0276386
1908 0.00782643
1920 0.0072461
1932 0.0172565
1944 0.00515824
1956 0.0519698
1968 0.0105936
1980 0.0210871
1992 0.0273587
2004 0.00897439
2016 0.0442387
2028 0.00602755
2040 0.00351477
2052 0.00862352
2064 0.0373974
2076 0.064929
2088 0.00309277
2100 0.00180497
2112 0.0119658
2124 0.0112314
2136 0.0108486
2148 0.0160812
2160 0.0121455
2172 0.0284057
2184 0.0268388
2196 0.00578645
2208 0.0124139
2220 0.0125228
2232 0.0197776
2244 0.00626183
2256 0.013704
2268 0.0129619
2280 0.0173709
2292 0.00520082
2304 0.000476406
2316 0.000984264
2328 0.012536
2340 0.00337215
2352 0.00596278
2364 0.011804
2376 0.0416759
2388 0.0195566
2400 0.012847
2412 0.0110659
2424 0.0141177
2436 0.0113595
2448 0.00973619
2460 0.0187128
2472 0.0274937
2484 0.0108874
2496 0.00395403
2508 0.0137668
2520 0.0293716
2532 0.0061511
2544 0.00777216
2556 0.00516325
2568 0.0112658
2580 0.00932103
2592 0.0125968
2604 0.00156106
2616 0.00245594
2628 0.00764134
2640 0.0150533
2652 0.0205722
2664 0.00469336
2676 0.00222714
2688 0.00108706
2700 0.0046985
2712 0.00742314
2724 0.0157663
2736 0.0224262
2748 0.00934867
2760 0.00820028
2772 0.00897452
2784 0.0157689
2796 0.00319293
2808 0.00671196
2820 0.01125
2832 0.000928218
2844 0.00310597
2856 0.00474562
2868 0.0111601
2880 0.00577392
2892 0.0114569
2904 0.0236483
2916 0.00715083
2928 0.00542577
2940 0.00474301
2952 0.00472341
2964 0.00700933
2976 0.0078999
2988 0.00280379
3000 0.00235474
3012 0.00197606
3024 0.00833011
3036 0.00644404
3048 0.00452931
3060 0.0104251
3072 0.00877542
3084 0.0077742
3096 0.0123574
3108 0.00752037
3120 0.0128005
3132 0.0112269
3144 0.00427741
3156 0.00405018
3168 0.0093253
3180 0.00773297
3192 0.0146118
3204 0.0157074
3216 0.00588769
3228 0.00494133
3240 0.00405572
3252 0.00328393
3264 0.00737439
3276 0.00399461
3288 0.000634363
3300 0.00369329
3312 0.00569018
3324 0.00401189
3336 0.00634037
3348 0.00811017
3360 0.00482783
3372 0.00208076
3384 0.00598381
3396 0.00407115
3408 0.00675596
3420 0.00442767
3432 0.00340371
3444 0.0068386
3456 0.0163795
3468 0.00907594
3480 0.0057045
3487 0.0160555