File: constrainednmf/example_data/BaTiO3_xrd_ramp/BTO_190K_tth.xy
0.000000000000000000e+00 0.000333999
12 0.0103416
24 0.0113031
36 0.00313261
48 0.00325371
60 0.00344025
72 0.00356722
84 0.00386344
96 0.0036942
108 0.00362421
120 0.00351723
132 0.00336508
144 0.003242
156 0.00301531
168 0.00285236
180 0.00272516
192 0.00253772
204 0.00232152
216 0.00225106
228 0.00217797
240 0.00207859
252 0.00211871
264 0.00213083
276 0.00217104
288 0.00250097
300 0.0022761
312 0.00213545
324 0.0030221
336 0.0669967
348 0.00211913
360 0.0043616
372 0.00113075
384 0.00163726
396 0.00112574
408 0.00118716
420 0.00153603
432 0.00150019
444 0.0023117
456 0.00472225
468 0.0642521
480 0.0266003
492 0.00365285
504 0.00192587
516 0.00213553
528 0.000513121
540 0.00033632
552 0.000574947
564 0.00161174
576 0.0468343
588 0.00551405
600 0.00132115
612 0.000808607
624 0.00228592
636 0.00205503
648 0.00775084
660 0.0132914
672 0.243806
684 0.00496325
696 0.00340543
708 0.00125051
720 0.000829151
732 0.00129334
744 0.0233105
756 0.00952361
768 0.000959885
780 0.000958082
792 0.00136134
804 0.00445078
816 0.104498
828 0.0290843
840 0.00268594
852 0.000984598
864 0.000769137
876 0.000637367
888 0.000784446
900 0.000424534
912 0.000603004
924 0.00120208
936 0.00577413
948 0.346792
960 0.00561791
972 0.00187642
984 0.0020175
996 0.00438305
1008 0.0721695
1020 0.00180347
1032 0.00164614
1044 0.00472422
1056 0.120116
1068 0.0383543
1080 0.0032112
1092 0.00286979
1104 0.0137177
1116 0.0675218
1128 0.00195925
1140 0.000921347
1152 0.00418859
1164 0.103622
1176 0.00163249
1188 0.000774098
1200 0.00432668
1212 0.0348836
1224 0.00239771
1236 0.00398778
1248 0.052115
1260 0.115074
1272 0.00409695
1284 0.00129705
1296 0.000765847
1308 0.000557099
1320 0.000670431
1332 0.00533592
1344 0.0295576
1356 0.00327593
1368 0.00214326
1380 0.0451806
1392 0.00985578
1404 0.00354124
1416 0.0331313
1428 0.0792702
1440 0.00469963
1452 0.00483586
1464 0.0691052
1476 0.00326942
1488 0.00781969
1500 0.124861
1512 0.011394
1524 0.0037092
1536 0.0418247
1548 0.00555343
1560 0.00254684
1572 0.0614558
1584 0.00527236
1596 0.00144406
1608 0.000918712
1620 0.0015631
1632 0.00490203
1644 0.0965263
1656 0.00717286
1668 0.00442278
1680 0.0224859
1692 0.00520423
1704 0.0398368
1716 0.117011
1728 0.00823247
1740 0.0246108
1752 0.0127292
1764 0.000835451
1776 0.000348605
1788 0.000780829
1800 0.00827658
1812 0.0337514
1824 0.00548091
1836 0.0609561
1848 0.0307536
1860 0.00192024
1872 0.000430626
1884 0.000889103
1896 0.0133843
1908 0.0077404
1920 0.00474538
1932 0.0215775
1944 0.00440554
1956 0.0503851
1968 0.0160062
1980 0.0130722
1992 0.027741
2004 0.00651851
2016 0.0557942
2028 0.00763555
2040 0.00796954
2052 0.00551309
2064 0.0265294
2076 0.0595977
2088 0.00587157
2100 0.00211522
2112 0.00391895
2124 0.0283439
2136 0.0144158
2148 0.020459
2160 0.0122099
2172 0.0169577
2184 0.0363298
2196 0.00498942
2208 0.0142338
2220 0.00614462
2232 0.0243547
2244 0.00757791
2256 0.0183783
2268 0.00652272
2280 0.0327095
2292 0.0113852
2304 0.000909178
2316 0.000520031
2328 0.00638648
2340 0.00177362
2352 0.0100545
2364 0.00861848
2376 0.0407609
2388 0.0169186
2400 0.0156615
2412 0.00818293
2424 0.0171347
2436 0.0104641
2448 0.0129127
2460 0.0114335
2472 0.0454888
2484 0.0153373
2496 0.00295404
2508 0.00663541
2520 0.0354394
2532 0.00736913
2544 0.0088382
2556 0.00594067
2568 0.00834393
2580 0.011969
2592 0.0115933
2604 0.00132772
2616 0.00110692
2628 0.00865831
2640 0.0102827
2652 0.0348901
2664 0.00888581
2676 0.000658551
2688 0.00125662
2700 0.00228544
2712 0.00924103
2724 0.0104417
2736 0.0295937
2748 0.0112597
2760 0.00612729
2772 0.0119174
2784 0.0163044
2796 0.0107514
2808 0.00667708
2820 0.0165746
2832 0.0016657
2844 0.00198221
2856 0.00850817
2868 0.00752932
2880 0.00677092
2892 0.0153443
2904 0.0256738
2916 0.0114555
2928 0.00643372
2940 0.00937035
2952 0.00573916
2964 0.00712535
2976 0.00983066
2988 0.00493119
3000 0.000449115
3012 0.00461065
3024 0.0059455
3036 0.00714294
3048 0.00815055
3060 0.00764314
3072 0.00911936
3084 0.00808942
3096 0.010733
3108 0.00618798
3120 0.00997275
3132 0.021567
3144 0.00465109
3156 0.00368645
3168 0.0111572
3180 0.00804385
3192 0.0122379
3204 0.0206384
3216 0.00755253
3228 0.00238714
3240 6.51123e-05
3252 0.00287448
3264 0.0058414
3276 0.0139902
3288 0.00381526
3300 0.00385058
3312 0.00752438
3324 0.00389237
3336 0.0094376
3348 0.012598
3360 0.00965518
3372 0.00434093
3384 0.00858247
3396 0.0135238
3408 0.00800149
3420 0.00780676
3432 0.00393305
3444 0.0108592
3456 0.0114189
3468 0.00850013
3480 0.00923099
3487 0.0190436