File: constrainednmf/example_data/BaTiO3_xrd_ramp/BTO_305K_tth.xy
0.000000000000000000e+00 0.000275905
12 0.0116804
24 0.0125218
36 0.00268803
48 0.00279584
60 0.00295329
72 0.003146
84 0.00358402
96 0.00348492
108 0.00336274
120 0.00336606
132 0.00334975
144 0.00330043
156 0.00312368
168 0.00306525
180 0.00293459
192 0.00281938
204 0.00271865
216 0.00261601
228 0.00260516
240 0.00251282
252 0.00255493
264 0.00259489
276 0.00283147
288 0.00300713
300 0.00269317
312 0.00248781
324 0.0034236
336 0.0715225
348 0.00180744
360 0.00458947
372 0.00114191
384 0.00102214
396 0.001051
408 0.00110556
420 0.00135309
432 0.00146837
444 0.00232141
456 0.00501181
468 0.083281
480 0.0246987
492 0.003529
504 0.00185846
516 0.00193586
528 0.000372277
540 0.000425566
552 0.000482906
564 0.00176446
576 0.0605663
588 0.00495083
600 0.001058
612 0.000715961
624 0.0021597
636 0.00180653
648 0.00260715
660 0.0192788
672 0.335038
684 0.00450574
696 0.0020269
708 0.00112972
720 0.000946871
732 0.00151715
744 0.0458329
756 0.00792114
768 0.0010813
780 0.00119779
792 0.00204939
804 0.00550018
816 0.182351
828 0.0231472
840 0.00344394
852 0.00130198
864 0.000889794
876 0.000387605
888 0.000788493
900 0.000432175
912 0.00063522
924 0.00117683
936 0.00727309
948 0.292838
960 0.00504948
972 0.00156187
984 0.00142633
996 0.006709
1008 0.0598059
1020 0.00117398
1032 0.00146209
1044 0.00551415
1056 0.122657
1068 0.0243187
1080 0.002751
1092 0.00235774
1104 0.0330276
1116 0.0768741
1128 0.00111658
1140 0.000977934
1152 0.00447427
1164 0.0547153
1176 0.000947984
1188 0.000886471
1200 0.00597314
1212 0.0325252
1224 0.00207473
1236 0.0046725
1248 0.0914656
1260 0.0855456
1272 0.00375969
1284 0.00104725
1296 0.000556687
1308 0.000476132
1320 0.000666224
1332 0.0177074
1344 0.0347874
1356 0.00231381
1368 0.00298655
1380 0.0400462
1392 0.00620442
1404 0.00375778
1416 0.060182
1428 0.107987
1440 0.00426592
1452 0.00549239
1464 0.0445333
1476 0.00339038
1488 0.0127682
1500 0.0813813
1512 0.00820827
1524 0.00454101
1536 0.0260849
1548 0.00425204
1560 0.00321467
1572 0.097438
1584 0.00427071
1596 0.00151517
1608 0.00131684
1620 0.00180262
1632 0.00743386
1644 0.0785088
1656 0.00562517
1668 0.00649566
1680 0.0165352
1692 0.00662814
1704 0.0600749
1716 0.120209
1728 0.00810047
1740 0.0174
1752 0.0151385
1764 0.00116285
1776 0.000683788
1788 0.000916863
1800 0.0124384
1812 0.0299261
1824 0.00815188
1836 0.0335416
1848 0.0203855
1860 0.00111159
1872 0.000187124
1884 0.0010264
1896 0.0255669
1908 0.00764755
1920 0.00683757
1932 0.0165893
1944 0.00480406
1956 0.0517869
1968 0.0104174
1980 0.0203277
1992 0.0273342
2004 0.00831633
2016 0.0466124
2028 0.00659171
2040 0.00379844
2052 0.00844835
2064 0.0368098
2076 0.0630021
2088 0.00295664
2100 0.00158238
2112 0.0110332
2124 0.0121829
2136 0.0118792
2148 0.0161302
2160 0.0127663
2172 0.0269334
2184 0.0262844
2196 0.00571356
2208 0.0122645
2220 0.012012
2232 0.0174154
2244 0.00634105
2256 0.0139669
2268 0.0119244
2280 0.0167719
2292 0.00557699
2304 0.000259184
2316 0.000336378
2328 0.0108402
2340 0.00288843
2352 0.00607443
2364 0.0109098
2376 0.0414313
2388 0.0203943
2400 0.0122143
2412 0.0114266
2424 0.0138102
2436 0.0115408
2448 0.00927895
2460 0.0178726
2472 0.0286002
2484 0.011717
2496 0.00340689
2508 0.0126138
2520 0.0286049
2532 0.00544622
2544 0.00751881
2556 0.00465113
2568 0.0105875
2580 0.00974574
2592 0.0123558
2604 0.00158813
2616 0.00214089
2628 0.00802295
2640 0.0141653
2652 0.0208061
2664 0.00492611
2676 0.00145174
2688 0.000617754
2700 0.00359256
2712 0.00747793
2724 0.0146054
2736 0.0222242
2748 0.0100952
2760 0.00812529
2772 0.00978532
2784 0.0144514
2796 0.00442839
2808 0.0078891
2820 0.0119179
2832 0.000833636
2844 0.00286845
2856 0.00518472
2868 0.0104094
2880 0.00577144
2892 0.0129998
2904 0.0226163
2916 0.0077566
2928 0.00577856
2940 0.00561752
2952 0.00403438
2964 0.00620729
2976 0.00652306
2988 0.00299722
3000 0.00119933
3012 0.0020045
3024 0.00660993
3036 0.00726766
3048 0.00649727
3060 0.0104429
3072 0.00913004
3084 0.00735405
3096 0.0135848
3108 0.00780588
3120 0.0113595
3132 0.0121035
3144 0.0049531
3156 0.00432954
3168 0.00836236
3180 0.0074046
3192 0.0133072
3204 0.0174012
3216 0.00504881
3228 0.00483674
3240 0.00204941
3252 0.00368913
3264 0.00464656
3276 0.00781243
3288 0.00164742
3300 0.001948
3312 0.00344542
3324 0.00584181
3336 0.00409333
3348 0.00943508
3360 0.00389628
3372 0.00394294
3384 0.00709011
3396 0.00716049
3408 0.00294612
3420 0.00562908
3432 0.00716376
3444 0.00965498
3456 0.012049
3468 0.0124135
3480 0.0277059
3487 0.0002372