File: constrainednmf/example_data/BaTiO3_xrd_ramp/BTO_255K_tth.xy
0.000000000000000000e+00 3.3223e-05
12 0.00969795
24 0.0109064
36 0.0026663
48 0.00283597
60 0.00296561
72 0.00316901
84 0.00347953
96 0.00337946
108 0.0032538
120 0.00318026
132 0.00304699
144 0.0028477
156 0.00281555
168 0.00262113
180 0.00252143
192 0.00231165
204 0.0021999
216 0.00207946
228 0.00207312
240 0.00191879
252 0.00203527
264 0.00205864
276 0.00217841
288 0.00245592
300 0.00221645
312 0.00205272
324 0.00289584
336 0.0648551
348 0.00156804
360 0.00421329
372 0.000874812
384 0.000702392
396 0.000754752
408 0.000774635
420 0.00123837
432 0.00122799
444 0.00216159
456 0.00462295
468 0.0783761
480 0.0234812
492 0.00320277
504 0.00161699
516 0.00185391
528 0.000318367
540 0.000302095
552 0.000407818
564 0.00144967
576 0.0558861
588 0.0049087
600 0.000882083
612 0.000542603
624 0.0019706
636 0.00134674
648 0.00220334
660 0.0155845
672 0.23769
684 0.00424498
696 0.00195991
708 0.000779443
720 0.000581229
732 0.00113685
744 0.0336903
756 0.00773693
768 0.000682154
780 0.000626689
792 0.00146886
804 0.00486018
816 0.144718
828 0.0235314
840 0.00282071
852 0.000848444
864 0.000579606
876 0.000236132
888 0.000567358
900 0.000118571
912 0.000465168
924 0.000904603
936 0.00653553
948 0.338298
960 0.00474353
972 0.00133061
984 0.00115944
996 0.00488628
1008 0.0548323
1020 0.00127284
1032 0.00125123
1044 0.00490101
1056 0.163982
1068 0.0303701
1080 0.00238122
1092 0.0021576
1104 0.0195949
1116 0.0756739
1128 0.00162038
1140 0.000991712
1152 0.00390601
1164 0.06798
1176 0.00124783
1188 0.000550416
1200 0.00543765
1212 0.0323788
1224 0.00172462
1236 0.00418964
1248 0.0741738
1260 0.0909322
1272 0.0034295
1284 0.000952482
1296 0.000189712
1308 0.000430043
1320 0.000516725
1332 0.00812923
1344 0.0186739
1356 0.00214901
1368 0.00215352
1380 0.0490614
1392 0.00805408
1404 0.00318585
1416 0.0513582
1428 0.0843646
1440 0.00379067
1452 0.00490744
1464 0.0607861
1476 0.00270527
1488 0.00912724
1500 0.0924403
1512 0.00823793
1524 0.00343004
1536 0.0363223
1548 0.00373171
1560 0.00225085
1572 0.077174
1584 0.00352458
1596 0.000759626
1608 0.000342788
1620 0.000627254
1632 0.00566717
1644 0.0832661
1656 0.00521308
1668 0.005451
1680 0.0177904
1692 0.00512769
1704 0.059855
1716 0.0971548
1728 0.00697461
1740 0.0274509
1752 0.0180185
1764 0.000722932
1776 0.000116382
1788 0.000781452
1800 0.0109365
1812 0.0257365
1824 0.0064969
1836 0.0614144
1848 0.0323756
1860 0.00154362
1872 0.000143335
1884 0.000915181
1896 0.0143625
1908 0.00530803
1920 0.00577509
1932 0.0166067
1944 0.00412464
1956 0.0560329
1968 0.0123815
1980 0.0168684
1992 0.0258766
2004 0.00727765
2016 0.0564736
2028 0.00760383
2040 0.00661609
2052 0.00715197
2064 0.0374661
2076 0.0492631
2088 0.00416577
2100 0.00146982
2112 0.00531025
2124 0.0202397
2136 0.0186023
2148 0.0199249
2160 0.0128494
2172 0.0188383
2184 0.0288668
2196 0.00492029
2208 0.0113196
2220 0.00861514
2232 0.0132636
2244 0.00651381
2256 0.0153264
2268 0.0076847
2280 0.0229975
2292 0.00842872
2304 0.000368366
2316 0.000283945
2328 0.00856894
2340 0.00198685
2352 0.00870126
2364 0.00965609
2376 0.0401645
2388 0.0165336
2400 0.0123702
2412 0.00919188
2424 0.0158179
2436 0.00964845
2448 0.0102832
2460 0.0142965
2472 0.0355462
2484 0.0177269
2496 0.00254872
2508 0.00939198
2520 0.026468
2532 0.00604656
2544 0.00585027
2556 0.00671068
2568 0.0055026
2580 0.0116486
2592 0.00839973
2604 0.00038974
2616 0.00129148
2628 0.00815374
2640 0.0132425
2652 0.0264092
2664 0.00635415
2676 0.00047502
2688 0.00126198
2700 0.00245247
2712 0.00773192
2724 0.0116905
2736 0.0234129
2748 0.0124391
2760 0.00486651
2772 0.0135856
2784 0.0121694
2796 0.00761145
2808 0.00763527
2820 0.0152881
2832 0.00111438
2844 0.00194206
2856 0.00837924
2868 0.00866325
2880 0.00565791
2892 0.0174346
2904 0.0189568
2916 0.0101587
2928 0.00756994
2940 0.00925387
2952 0.00576897
2964 0.00615158
2976 0.00977599
2988 0.00447457
3000 0.00204367
3012 0.00479138
3024 0.0072862
3036 0.00762002
3048 0.00742758
3060 0.00656085
3072 0.00808039
3084 0.00843333
3096 0.00758253
3108 0.00517371
3120 0.0104848
3132 0.0152313
3144 0.00542777
3156 0.00308062
3168 0.00906804
3180 0.00596724
3192 0.0125334
3204 0.0151987
3216 0.00739511
3228 0.00237298
3240 0.00115335
3252 0.000809576
3264 0.00636586
3276 0.00681854
3288 0.00253168
3300 0.00186897
3312 0.00188257
3324 0.00241997
3336 0.00687129
3348 0.00966513
3360 0.00534961
3372 0.00517363
3384 0.00685617
3396 0.00547306
3408 0.00490307
3420 0.00599181
3432 0.00800979
3444 0.0083094
3456 0.0107004
3468 0.00757019
3480 0.00847461
3487 0.000488481