File: constrainednmf/example_data/BaTiO3_xrd_ramp/BTO_315K_tth.xy
0.000000000000000000e+00 0.000684277
12 0.0127102
24 0.0136593
36 0.00357252
48 0.00374002
60 0.00386588
72 0.0039709
84 0.00436058
96 0.00418576
108 0.00406988
120 0.00399507
132 0.00386481
144 0.00369567
156 0.00351554
168 0.00335682
180 0.00322613
192 0.00306467
204 0.0029078
216 0.00276587
228 0.00273991
240 0.002591
252 0.00274432
264 0.00280065
276 0.00301306
288 0.00317112
300 0.0028008
312 0.00262164
324 0.0036472
336 0.0720103
348 0.00212183
360 0.00487682
372 0.0013713
384 0.00138335
396 0.00131787
408 0.00142898
420 0.0018642
432 0.00175364
444 0.00276208
456 0.00539725
468 0.0850202
480 0.0249093
492 0.00390215
504 0.00220464
516 0.00228557
528 0.00088598
540 0.000671927
552 0.000888772
564 0.00209228
576 0.0619953
588 0.0054081
600 0.00148857
612 0.00117883
624 0.00245557
636 0.0022747
648 0.00282713
660 0.0201068
672 0.343205
684 0.00499113
696 0.00258975
708 0.00134659
720 0.00123397
732 0.00178937
744 0.0477621
756 0.0079735
768 0.00134947
780 0.00124927
792 0.00243182
804 0.00594504
816 0.18758
828 0.0232824
840 0.00361384
852 0.00151284
864 0.00145051
876 0.000962984
888 0.00119625
900 0.000775257
912 0.000855249
924 0.00184113
936 0.00755215
948 0.285964
960 0.00550738
972 0.00207121
984 0.00164562
996 0.00675857
1008 0.0600091
1020 0.00187114
1032 0.00182819
1044 0.00630281
1056 0.118617
1068 0.0238322
1080 0.00324311
1092 0.00252443
1104 0.034751
1116 0.0746958
1128 0.00204225
1140 0.00137165
1152 0.00490167
1164 0.0520578
1176 0.00167712
1188 0.0015337
1200 0.00687878
1212 0.0330042
1224 0.00262409
1236 0.00513881
1248 0.0943834
1260 0.0822438
1272 0.0042957
1284 0.00142517
1296 0.000337275
1308 0.000812013
1320 0.00114628
1332 0.018679
1344 0.0380711
1356 0.00250378
1368 0.00312131
1380 0.0394057
1392 0.00622872
1404 0.00451065
1416 0.0614264
1428 0.106207
1440 0.0041015
1452 0.00572991
1464 0.0434095
1476 0.00306808
1488 0.0130959
1500 0.0822373
1512 0.00828899
1524 0.00442984
1536 0.0249409
1548 0.00388602
1560 0.00307945
1572 0.0995444
1584 0.00377256
1596 0.0014102
1608 0.00127713
1620 0.00156941
1632 0.00759734
1644 0.0798116
1656 0.00531641
1668 0.00617156
1680 0.0160235
1692 0.00660678
1704 0.0599495
1716 0.123695
1728 0.00795918
1740 0.0164231
1752 0.014031
1764 0.00110838
1776 0.000879956
1788 0.00119879
1800 0.0125834
1812 0.0303406
1824 0.00876114
1836 0.0310204
1848 0.0186916
1860 0.00178177
1872 0.000762892
1884 0.00162442
1896 0.0270048
1908 0.00801556
1920 0.00705828
1932 0.0171564
1944 0.0051735
1956 0.0522586
1968 0.0108093
1980 0.021182
1992 0.028257
2004 0.00899593
2016 0.0457521
2028 0.00668566
2040 0.00425782
2052 0.00947685
2064 0.0379305
2076 0.0653951
2088 0.00363117
2100 0.00194077
2112 0.0119777
2124 0.0119851
2136 0.0118896
2148 0.0162389
2160 0.0132592
2172 0.0283689
2184 0.0270964
2196 0.00636499
2208 0.013103
2220 0.0130585
2232 0.0191469
2244 0.00688941
2256 0.0139805
2268 0.0135317
2280 0.0172114
2292 0.00556564
2304 0.000804032
2316 0.000835568
2328 0.0117306
2340 0.00334844
2352 0.00623607
2364 0.0118985
2376 0.0417081
2388 0.0197454
2400 0.0124964
2412 0.0114037
2424 0.0137618
2436 0.0112584
2448 0.00978494
2460 0.0178195
2472 0.0275263
2484 0.0111944
2496 0.00369147
2508 0.0130017
2520 0.0287981
2532 0.00568889
2544 0.00726853
2556 0.0046193
2568 0.0112558
2580 0.00927489
2592 0.0128067
2604 0.000526937
2616 0.00208033
2628 0.00876291
2640 0.0152252
2652 0.0204746
2664 0.00448666
2676 0.00170011
2688 0.00102438
2700 0.00517526
2712 0.00822156
2724 0.0154983
2736 0.0224505
2748 0.00949179
2760 0.0085318
2772 0.010066
2784 0.0147626
2796 0.00463812
2808 0.0069758
2820 0.0109358
2832 0.00119767
2844 0.00314464
2856 0.00682856
2868 0.0116163
2880 0.0066749
2892 0.0124767
2904 0.0243795
2916 0.00767369
2928 0.00619688
2940 0.00593407
2952 0.00470156
2964 0.00740965
2976 0.00596934
2988 0.00371796
3000 0.0024874
3012 0.00378717
3024 0.00633001
3036 0.00633725
3048 0.00331938
3060 0.0108301
3072 0.00901097
3084 0.00774474
3096 0.0119244
3108 0.00606471
3120 0.00983226
3132 0.010846
3144 0.00386481
3156 0.00374929
3168 0.00783358
3180 0.00669937
3192 0.0116837
3204 0.0138446
3216 0.00448587
3228 0.00464291
3240 0.000191729
3252 0.00317163
3264 0.00696019
3276 0.00650677
3288 0.0013719
3300 0.00376099
3312 0.00581683
3324 0.00299918
3336 0.00448414
3348 0.00797482
3360 0.00738821
3372 0.00690712
3384 0.00535813
3396 0.00578916
3408 0.00222125
3420 0.000489095
3432 0.00356973
3444 0.0063929
3456 0.00813544
3468 0.00562931
3480 0.0143715
3487 0.0220112