File: constrainednmf/example_data/BaTiO3_xrd_ramp/BTO_380K_tth.xy
0.000000000000000000e+00 0.00150432
12 0.013239
24 0.0137198
36 0.00337252
48 0.00338402
60 0.00343379
72 0.00358737
84 0.00403402
96 0.00398768
108 0.0039238
120 0.00393776
132 0.00403007
144 0.00395756
156 0.00387589
168 0.00384194
180 0.00384343
192 0.00379863
204 0.00362019
216 0.00366382
228 0.00369262
240 0.00370747
252 0.00381943
264 0.00385798
276 0.00399222
288 0.0042219
300 0.00381425
312 0.00351011
324 0.00449126
336 0.0630494
348 0.00288932
360 0.00561175
372 0.00207614
384 0.00197707
396 0.00183932
408 0.00200743
420 0.00218893
432 0.00237153
444 0.00310413
456 0.00588501
468 0.0884332
480 0.0228079
492 0.00408076
504 0.00263376
516 0.002278
528 0.00124001
540 0.00118546
552 0.00136169
564 0.00250607
576 0.070119
588 0.00542172
600 0.00184656
612 0.00146668
624 0.00304233
636 0.00253051
648 0.00340362
660 0.0204228
672 0.298525
684 0.0056117
696 0.00288272
708 0.0017093
720 0.00192176
732 0.00252122
744 0.0448397
756 0.00715018
768 0.00195676
780 0.00214263
792 0.00320378
804 0.00676736
816 0.185895
828 0.0204322
840 0.00424652
852 0.00253295
864 0.00172857
876 0.00154348
888 0.00139254
900 0.00135531
912 0.0012708
924 0.00239955
936 0.00837903
948 0.284401
960 0.0053305
972 0.00240259
984 0.00194755
996 0.00716079
1008 0.0479133
1020 0.00217202
1032 0.00222123
1044 0.00655049
1056 0.123187
1068 0.0178616
1080 0.00332658
1092 0.00294816
1104 0.0303242
1116 0.0444771
1128 0.00204849
1140 0.00180699
1152 0.00535091
1164 0.0353764
1176 0.00168224
1188 0.00136772
1200 0.00651709
1212 0.0266357
1224 0.00290821
1236 0.00525121
1248 0.0903116
1260 0.0501064
1272 0.00404868
1284 0.00188393
1296 0.0011683
1308 0.00117435
1320 0.00144916
1332 0.016555
1344 0.0499162
1356 0.0025443
1368 0.00341864
1380 0.0418329
1392 0.00536579
1404 0.00500051
1416 0.0622509
1428 0.0610099
1440 0.00463158
1452 0.00656474
1464 0.0433675
1476 0.00412337
1488 0.0134434
1500 0.106855
1512 0.00750454
1524 0.0055747
1536 0.0307154
1548 0.00388363
1560 0.00397616
1572 0.107356
1584 0.00457008
1596 0.00234774
1608 0.00239392
1620 0.00273024
1632 0.00863627
1644 0.104067
1656 0.00571157
1668 0.00752758
1680 0.0191435
1692 0.00779258
1704 0.0598497
1716 0.0949898
1728 0.00811314
1740 0.0163237
1752 0.00771043
1764 0.00175716
1776 0.00149083
1788 0.0019461
1800 0.012897
1812 0.0221794
1824 0.00866332
1836 0.0298457
1848 0.0107053
1860 0.00208248
1872 0.00110466
1884 0.00203925
1896 0.0287646
1908 0.00427394
1920 0.00588359
1932 0.0181218
1944 0.00525508
1956 0.0586177
1968 0.00720103
1980 0.0198475
1992 0.0212941
2004 0.00914564
2016 0.0443499
2028 0.00542989
2040 0.00319312
2052 0.00622165
2064 0.0349624
2076 0.0478301
2088 0.00295643
2100 0.00141362
2112 0.00925432
2124 0.0128335
2136 0.00720675
2148 0.0168343
2160 0.00712017
2172 0.0283314
2184 0.0193518
2196 0.00590355
2208 0.00717866
2220 0.0122152
2232 0.0291219
2244 0.00554747
2256 0.0140881
2268 0.00993086
2280 0.0230602
2292 0.00343282
2304 0.000774689
2316 0.001085
2328 0.0134784
2340 0.00349945
2352 0.00686351
2364 0.0108083
2376 0.0430465
2388 0.0124918
2400 0.0119945
2412 0.00790751
2424 0.0157489
2436 0.00824714
2448 0.0107488
2460 0.0168563
2472 0.0307578
2484 0.00726247
2496 0.00461847
2508 0.0126049
2520 0.0292899
2532 0.00589886
2544 0.00789107
2556 0.00559062
2568 0.0116445
2580 0.0100465
2592 0.00824269
2604 0.00222677
2616 0.00306614
2628 0.00915094
2640 0.0133318
2652 0.0233621
2664 0.00312242
2676 0.00203059
2688 0.00153634
2700 0.00556065
2712 0.00693862
2724 0.0114096
2736 0.0228074
2748 0.00561711
2760 0.00776362
2772 0.00939911
2784 0.0128042
2796 0.00442778
2808 0.00438688
2820 0.00971474
2832 0.000678064
2844 0.00281446
2856 0.00496518
2868 0.00521495
2880 0.00490821
2892 0.0103618
2904 0.0207084
2916 0.00795484
2928 0.00463742
2940 0.00602642
2952 0.00427986
2964 0.004944
2976 0.00776561
2988 0.00226474
3000 0.00352071
3012 0.00367533
3024 0.00573098
3036 0.00895396
3048 0.00522974
3060 0.0101327
3072 0.00939208
3084 0.00700266
3096 0.0123148
3108 0.00551035
3120 0.0114089
3132 0.013597
3144 0.00428233
3156 0.0048191
3168 0.00710083
3180 0.00750471
3192 0.0120636
3204 0.0152533
3216 0.00598073
3228 0.0045734
3240 0.00294448
3252 0.00441518
3264 0.00560704
3276 0.00989957
3288 0.00148644
3300 0.00427734
3312 0.00549691
3324 0.00628254
3336 0.00373616
3348 0.0110091
3360 0.00336814
3372 0.00351664
3384 0.00694584
3396 0.00471147
3408 0.00532126
3420 0.00723366
3432 0.00879819
3444 0.0151167
3456 0.0156865
3468 0.0221517
3480 0.0221196
3487 0.000380405