File: constrainednmf/example_data/BaTiO3_xrd_ramp/BTO_215K_tth.xy
0.000000000000000000e+00 0.000112894
12 0.00969995
24 0.0110487
36 0.00270825
48 0.00296801
60 0.00304879
72 0.00314706
84 0.00353175
96 0.00338208
108 0.00327105
120 0.00319745
132 0.00310292
144 0.00298787
156 0.00281765
168 0.00261602
180 0.00247787
192 0.00229926
204 0.00219277
216 0.00211713
228 0.00206849
240 0.00210147
252 0.00207398
264 0.00215711
276 0.00227557
288 0.00253537
300 0.00231355
312 0.00204297
324 0.00291354
336 0.0660666
348 0.0016327
360 0.00424438
372 0.000954292
384 0.000915468
396 0.000865717
408 0.00104332
420 0.00130081
432 0.00126232
444 0.00216543
456 0.00455447
468 0.0757286
480 0.0242891
492 0.00317014
504 0.00163191
516 0.00189066
528 0.000279216
540 0.000160598
552 0.000479528
564 0.00141059
576 0.0529672
588 0.00496927
600 0.000950986
612 0.000524797
624 0.00191658
636 0.00146276
648 0.00202457
660 0.01442
672 0.22141
684 0.00433999
696 0.00220865
708 0.000771743
720 0.000665132
732 0.00106645
744 0.03153
756 0.0088929
768 0.000913514
780 0.000703906
792 0.00159939
804 0.00481329
816 0.134737
828 0.0260924
840 0.0026816
852 0.000993307
864 0.000848076
876 0.000337276
888 0.000756535
900 0.000241037
912 0.000346742
924 0.00115208
936 0.00624713
948 0.33918
960 0.00516127
972 0.00136627
984 0.00144939
996 0.00445456
1008 0.0601875
1020 0.00144408
1032 0.00142126
1044 0.00474909
1056 0.163062
1068 0.0369574
1080 0.00265878
1092 0.00236515
1104 0.0173769
1116 0.0758075
1128 0.00184481
1140 0.000924308
1152 0.00406494
1164 0.0800552
1176 0.00124832
1188 0.00060411
1200 0.00507257
1212 0.0336212
1224 0.00192436
1236 0.00406167
1248 0.0700766
1260 0.107447
1272 0.00367786
1284 0.000790032
1296 0.000568948
1308 0.000425293
1320 0.000719964
1332 0.00672349
1344 0.0178741
1356 0.00224016
1368 0.00207149
1380 0.0503028
1392 0.0101988
1404 0.00304725
1416 0.048079
1428 0.0789426
1440 0.00395022
1452 0.00527619
1464 0.0654293
1476 0.00269445
1488 0.0085049
1500 0.100997
1512 0.00982359
1524 0.00361855
1536 0.0391614
1548 0.00440245
1560 0.00233439
1572 0.0711976
1584 0.00407571
1596 0.000795956
1608 0.000603016
1620 0.00117885
1632 0.00541478
1644 0.088083
1656 0.00613096
1668 0.00539032
1680 0.0185649
1692 0.00548841
1704 0.0586875
1716 0.103176
1728 0.00764479
1740 0.0296948
1752 0.0169964
1764 0.00102127
1776 0.000749118
1788 0.000876923
1800 0.0114551
1812 0.0278015
1824 0.00608387
1836 0.0666445
1848 0.0399016
1860 0.00172347
1872 0.000606583
1884 0.00129569
1896 0.0135208
1908 0.00637596
1920 0.00605317
1932 0.0185164
1944 0.00469782
1956 0.0555304
1968 0.0155693
1980 0.0171284
1992 0.0251607
2004 0.00751278
2016 0.0569682
2028 0.00904204
2040 0.00841471
2052 0.00660035
2064 0.0374196
2076 0.0497387
2088 0.00493361
2100 0.00212517
2112 0.0049577
2124 0.0232069
2136 0.0204419
2148 0.0209245
2160 0.0124902
2172 0.0182602
2184 0.0336771
2196 0.00556734
2208 0.0116387
2220 0.00808364
2232 0.0151993
2244 0.00780247
2256 0.0161205
2268 0.00751247
2280 0.026775
2292 0.0123533
2304 0.000401122
2316 6.1079e-05
2328 0.0081159
2340 0.00211857
2352 0.00915149
2364 0.0100209
2376 0.0403244
2388 0.0163953
2400 0.0131471
2412 0.00863871
2424 0.0163208
2436 0.0112693
2448 0.0115273
2460 0.0143283
2472 0.0386246
2484 0.0188062
2496 0.00250048
2508 0.00909096
2520 0.0293093
2532 0.00692285
2544 0.00703175
2556 0.00725459
2568 0.00581026
2580 0.0133868
2592 0.00846983
2604 0.00119461
2616 0.0017817
2628 0.00834698
2640 0.0134577
2652 0.0287219
2664 0.00938238
2676 0.0009709
2688 0.00221427
2700 0.00227755
2712 0.00857712
2724 0.0125045
2736 0.0257928
2748 0.0133959
2760 0.0054001
2772 0.0143012
2784 0.013574
2796 0.00953382
2808 0.00726197
2820 0.0158051
2832 0.00093745
2844 0.00169812
2856 0.00910802
2868 0.0080775
2880 0.00620763
2892 0.0194421
2904 0.0189186
2916 0.0110603
2928 0.00744134
2940 0.00971997
2952 0.00652193
2964 0.00607399
2976 0.00999245
2988 0.00503624
3000 0.00104443
3012 0.00510969
3024 0.0060924
3036 0.0061444
3048 0.00943686
3060 0.00674651
3072 0.00915197
3084 0.00818934
3096 0.00763662
3108 0.00620764
3120 0.010228
3132 0.0167621
3144 0.00498964
3156 0.00295793
3168 0.00862786
3180 0.00503205
3192 0.0115133
3204 0.0152823
3216 0.00638561
3228 0.00112333
3240 0.000764176
3252 0.0015396
3264 0.00821529
3276 0.0108505
3288 0.00456145
3300 0.00215267
3312 0.0043704
3324 0.00255402
3336 0.00836994
3348 0.00906119
3360 0.0059591
3372 0.00522119
3384 0.00903668
3396 0.00935399
3408 0.00679921
3420 0.00211573
3432 0.00514039
3444 0.00828723
3456 0.00801153
3468 0.00640354
3480 0.00773218
3487 0.000730104