File: constrainednmf/example_data/BaTiO3_xrd_ramp/BTO_440K_tth.xy
0.000000000000000000e+00 0.000360707
12 0.0120333
24 0.0126649
36 0.00288764
48 0.00299962
60 0.00300713
72 0.00311924
84 0.00341612
96 0.00329937
108 0.00321209
120 0.00309548
132 0.00301792
144 0.00287562
156 0.00272985
168 0.00261971
180 0.0025667
192 0.0023804
204 0.00228377
216 0.00222136
228 0.00228285
240 0.00220525
252 0.00238007
264 0.00241967
276 0.00258861
288 0.00283455
300 0.00234624
312 0.00212411
324 0.00303962
336 0.0490619
348 0.00162324
360 0.00420768
372 0.000815374
384 0.00100263
396 0.000827079
408 0.000994881
420 0.00125131
432 0.0013217
444 0.00223008
456 0.00480321
468 0.0825383
480 0.0195557
492 0.00325579
504 0.00182937
516 0.00153444
528 0.000404257
540 0.000313863
552 0.000530772
564 0.00161114
576 0.0713682
588 0.00430414
600 0.00106154
612 0.000575284
624 0.00196878
636 0.00176406
648 0.0022778
660 0.0169978
672 0.192698
684 0.00429436
696 0.00161123
708 0.000781666
720 0.000924064
732 0.00159082
744 0.0313696
756 0.00495343
768 0.000999795
780 0.00118524
792 0.00218965
804 0.00548002
816 0.150157
828 0.016421
840 0.00285728
852 0.00134423
864 0.000612396
876 0.000630004
888 0.000552473
900 0.00056404
912 0.000510059
924 0.00126342
936 0.0069184
948 0.320513
960 0.0039217
972 0.00159905
984 0.00102557
996 0.00521718
1008 0.0307168
1020 0.00111528
1032 0.00134951
1044 0.00546699
1056 0.125506
1068 0.0130219
1080 0.0023546
1092 0.00195819
1104 0.0192311
1116 0.0247066
1128 0.00107998
1140 0.00100738
1152 0.00505539
1164 0.026447
1176 0.000863718
1188 0.000732469
1200 0.0051193
1212 0.0147808
1224 0.00218478
1236 0.00483307
1248 0.0668127
1260 0.0321449
1272 0.00324792
1284 0.00110952
1296 0.000495408
1308 0.000318837
1320 0.000609534
1332 0.00771159
1344 0.029542
1356 0.00139496
1368 0.00224237
1380 0.0516292
1392 0.00327336
1404 0.00367694
1416 0.0406531
1428 0.0294231
1440 0.00323015
1452 0.0049949
1464 0.0330076
1476 0.0030073
1488 0.0099977
1500 0.148192
1512 0.00519412
1524 0.00378947
1536 0.0485481
1548 0.0026017
1560 0.00285927
1572 0.107363
1584 0.00298544
1596 0.000987251
1608 0.00149037
1620 0.00166802
1632 0.00690003
1644 0.118452
1656 0.00420748
1668 0.00500574
1680 0.0161093
1692 0.00560923
1704 0.0440889
1716 0.0431933
1728 0.00597923
1740 0.0212283
1752 0.00457674
1764 0.000929773
1776 0.000741732
1788 0.00137326
1800 0.0091049
1812 0.0112752
1824 0.00611651
1836 0.0540009
1848 0.00681854
1860 0.00131599
1872 0.000637822
1884 0.00145364
1896 0.0240686
1908 0.00256607
1920 0.0040546
1932 0.0109219
1944 0.00446267
1956 0.0709652
1968 0.00508336
1980 0.0134186
1992 0.0101283
2004 0.00657072
2016 0.0532338
2028 0.00328536
2040 0.00516598
2052 0.0045549
2064 0.0256946
2076 0.0212575
2088 0.00245884
2100 0.00166142
2112 0.00495652
2124 0.0289907
2136 0.00448241
2148 0.0190986
2160 0.00441564
2172 0.0206364
2184 0.00850675
2196 0.00392127
2208 0.00436609
2220 0.006731
2232 0.0212381
2244 0.00365185
2256 0.0148483
2268 0.00569163
2280 0.0349756
2292 0.001801
2304 0.000211684
2316 0.000351845
2328 0.0120999
2340 0.00245314
2352 0.0101312
2364 0.00607695
2376 0.0525409
2388 0.00696684
2400 0.0155315
2412 0.00467188
2424 0.020113
2436 0.00497104
2448 0.0136862
2460 0.00966598
2472 0.0468586
2484 0.00450366
2496 0.00295822
2508 0.00770937
2520 0.0232883
2532 0.00393454
2544 0.00444149
2556 0.0048079
2568 0.00526437
2580 0.00936782
2592 0.0035833
2604 0.000713539
2616 0.00184724
2628 0.010424
2640 0.00767514
2652 0.0262261
2664 0.00201825
2676 0.000373456
2688 0.000794385
2700 0.00206784
2712 0.00853148
2724 0.00626089
2736 0.0263368
2748 0.00388126
2760 0.00362322
2772 0.0102288
2784 0.00434389
2796 0.00732073
2808 0.00281906
2820 0.00865177
2832 0.00106566
2844 0.00122158
2856 0.00897676
2868 0.0029945
2880 0.00376559
2892 0.0104148
2904 0.00950149
2916 0.00839506
2928 0.00235299
2940 0.00390693
2952 0.00391679
2964 0.00238067
2976 0.00873064
2988 0.00152879
3000 0.000498249
3012 0.00341433
3024 0.00309452
3036 0.00703993
3048 0.00497183
3060 0.00511258
3072 0.00893089
3084 0.00508367
3096 0.00457273
3108 0.00549038
3120 0.00775456
3132 0.0100877
3144 0.0034732
3156 0.00468982
3168 0.00535615
3180 0.00776634
3192 0.00860298
3204 0.0103609
3216 0.00427406
3228 0.00221102
3240 0.0025436
3252 0.00316729
3264 0.00600522
3276 0.00650548
3288 0.00307415
3300 0.00370898
3312 0.00436258
3324 0.00397286
3336 0.00660666
3348 0.00546271
3360 0.00743579
3372 0.00442836
3384 0.00383478
3396 0.00539468
3408 0.00270994
3420 0.00354426
3432 0.00153754
3444 0.0106395
3456 0.00434929
3468 0.00621643
3480 0.00511283
3487 0.0281309