File: constrainednmf/example_data/BaTiO3_xrd_ramp/BTO_245K_tth.xy
0.000000000000000000e+00 8.87406e-05
12 0.0101647
24 0.011025
36 0.00281657
48 0.00296741
60 0.00310851
72 0.00327378
84 0.00360188
96 0.00346844
108 0.00338799
120 0.00324721
132 0.00314392
144 0.00296304
156 0.00283782
168 0.00267257
180 0.00247875
192 0.00234015
204 0.00219012
216 0.00212379
228 0.00202629
240 0.00196354
252 0.00200774
264 0.00206152
276 0.00207078
288 0.00243741
300 0.00209194
312 0.00193057
324 0.00290145
336 0.0653921
348 0.00159471
360 0.00418999
372 0.000783953
384 0.000775411
396 0.000692116
408 0.00087908
420 0.00127005
432 0.00128716
444 0.00205579
456 0.00455153
468 0.0773804
480 0.0237525
492 0.00342814
504 0.00166858
516 0.00194221
528 0.000290478
540 0.000230851
552 0.000367751
564 0.00156815
576 0.0551081
588 0.00509047
600 0.00103269
612 0.000708792
624 0.00186341
636 0.00165234
648 0.00224746
660 0.0152683
672 0.230802
684 0.00424717
696 0.00194578
708 0.000751902
720 0.000541689
732 0.00111974
744 0.0329948
756 0.00809934
768 0.000726571
780 0.000526956
792 0.00150007
804 0.00465219
816 0.141727
828 0.0244151
840 0.00277336
852 0.000948974
864 0.000617028
876 0.000122705
888 0.000532858
900 0.00024107
912 0.000405235
924 0.00117525
936 0.00643684
948 0.33895
960 0.00497507
972 0.00127939
984 0.00138764
996 0.00497771
1008 0.0565681
1020 0.00129788
1032 0.00136008
1044 0.00510594
1056 0.165573
1068 0.0327184
1080 0.00302448
1092 0.0023
1104 0.0189409
1116 0.0767191
1128 0.00165437
1140 0.000891067
1152 0.00397339
1164 0.0722108
1176 0.0014088
1188 0.000808883
1200 0.00558541
1212 0.0330302
1224 0.00208479
1236 0.00451245
1248 0.0731312
1260 0.097001
1272 0.00361888
1284 0.000869507
1296 9.60715e-05
1308 0.00023039
1320 0.000800329
1332 0.00796385
1344 0.0174214
1356 0.00211973
1368 0.00225355
1380 0.0497942
1392 0.00878226
1404 0.00310447
1416 0.0504112
1428 0.082572
1440 0.00365747
1452 0.00503787
1464 0.0626224
1476 0.00272509
1488 0.00923766
1500 0.0944081
1512 0.00877545
1524 0.00360688
1536 0.0373747
1548 0.00391569
1560 0.00219537
1572 0.0750209
1584 0.00382384
1596 0.000986033
1608 0.000614724
1620 0.00100606
1632 0.00547867
1644 0.0845332
1656 0.00585247
1668 0.00512445
1680 0.018389
1692 0.00481045
1704 0.0600423
1716 0.0985311
1728 0.00746947
1740 0.028483
1752 0.0179142
1764 0.000669105
1776 9.03025e-05
1788 0.000783364
1800 0.0109942
1812 0.0260707
1824 0.00582847
1836 0.0635236
1848 0.0356536
1860 0.00181771
1872 0.000464437
1884 0.00119698
1896 0.0138103
1908 0.00582431
1920 0.00588504
1932 0.0175414
1944 0.0043633
1956 0.056094
1968 0.0134205
1980 0.0171934
1992 0.0257856
2004 0.00777057
2016 0.0569627
2028 0.00821222
2040 0.00734004
2052 0.00729027
2064 0.0378363
2076 0.0490344
2088 0.00458313
2100 0.0018921
2112 0.00520361
2124 0.0210452
2136 0.0201667
2148 0.0201617
2160 0.0126018
2172 0.0188233
2184 0.0309168
2196 0.00539359
2208 0.0112884
2220 0.00845896
2232 0.0141507
2244 0.00727797
2256 0.0156439
2268 0.00788764
2280 0.0242575
2292 0.00966302
2304 0.000537171
2316 0.000360213
2328 0.00873306
2340 0.00191312
2352 0.0088749
2364 0.00971562
2376 0.040253
2388 0.0159298
2400 0.0125782
2412 0.00902388
2424 0.0162747
2436 0.0106557
2448 0.0107494
2460 0.0139869
2472 0.0363364
2484 0.0190155
2496 0.00253498
2508 0.00923984
2520 0.0275594
2532 0.00636716
2544 0.00663791
2556 0.00674795
2568 0.00523878
2580 0.0123458
2592 0.00866829
2604 0.0006028
2616 0.00160468
2628 0.00836841
2640 0.0137441
2652 0.0266183
2664 0.00779162
2676 0.000875874
2688 0.00169945
2700 0.0025865
2712 0.00823604
2724 0.0126364
2736 0.0240729
2748 0.0124244
2760 0.00496684
2772 0.0135792
2784 0.0125141
2796 0.00849648
2808 0.0073942
2820 0.0154788
2832 0.00170559
2844 0.00178841
2856 0.00794428
2868 0.00826795
2880 0.00545764
2892 0.0188074
2904 0.0185862
2916 0.0100219
2928 0.00726864
2940 0.00899586
2952 0.00587178
2964 0.00526054
2976 0.00878542
2988 0.00387759
3000 0.00157794
3012 0.00438948
3024 0.00651065
3036 0.00707024
3048 0.00811716
3060 0.00716448
3072 0.00984801
3084 0.00971619
3096 0.00708847
3108 0.00612205
3120 0.0110078
3132 0.0159674
3144 0.00548453
3156 0.00281365
3168 0.00977023
3180 0.00699071
3192 0.0121177
3204 0.0145936
3216 0.00863511
3228 0.000442858
3240 0.00157595
3252 0.00224638
3264 0.00696203
3276 0.00731666
3288 0.00248575
3300 0.00165053
3312 0.00205436
3324 0.00338597
3336 0.00639174
3348 0.00915683
3360 0.00682101
3372 0.00380057
3384 0.00451163
3396 0.00522982
3408 0.0058236
3420 0.000867367
3432 0.000175785
3444 0.00788941
3456 0.0098174
3468 0.00578475
3480 0.0113284
3487 0.00188496