File: constrainednmf/example_data/BaTiO3_xrd_ramp/BTO_385K_tth.xy
0.000000000000000000e+00 0.00133833
12 0.013212
24 0.0138015
36 0.00362655
48 0.00371701
60 0.00380361
72 0.00389908
84 0.0043764
96 0.00430524
108 0.00418257
120 0.00424761
132 0.004198
144 0.00422049
156 0.00406332
168 0.00404637
180 0.0038675
192 0.00378284
204 0.00370949
216 0.00368448
228 0.00368657
240 0.00376367
252 0.00379534
264 0.00387621
276 0.00397382
288 0.00433247
300 0.00373435
312 0.00358502
324 0.00451569
336 0.0617208
348 0.00291096
360 0.00569899
372 0.00210697
384 0.00203252
396 0.00199016
408 0.00216649
420 0.00234567
432 0.00242159
444 0.0032948
456 0.00591955
468 0.0885378
480 0.0228569
492 0.00432168
504 0.00296607
516 0.00274912
528 0.00147294
540 0.001334
552 0.00160574
564 0.00272707
576 0.0706059
588 0.00568089
600 0.00204858
612 0.00155604
624 0.00315192
636 0.00278367
648 0.00357548
660 0.0203436
672 0.288306
684 0.00557522
696 0.00292453
708 0.00205761
720 0.0021539
732 0.00252275
744 0.0438106
756 0.00704145
768 0.00224449
780 0.00227909
792 0.00321932
804 0.00682548
816 0.183578
828 0.0200069
840 0.00434956
852 0.00250539
864 0.00195854
876 0.00175105
888 0.00182452
900 0.00131362
912 0.00129485
924 0.00233703
936 0.00834908
948 0.287169
960 0.00535014
972 0.00276874
984 0.00204573
996 0.00724655
1008 0.0465669
1020 0.00228557
1032 0.00249301
1044 0.00673017
1056 0.126028
1068 0.0171552
1080 0.00340762
1092 0.00326294
1104 0.0297025
1116 0.0420063
1128 0.00224319
1140 0.0017847
1152 0.00561108
1164 0.034233
1176 0.00213044
1188 0.00156
1200 0.00674693
1212 0.0258555
1224 0.00329859
1236 0.00579866
1248 0.0885153
1260 0.0477405
1272 0.00435395
1284 0.00190173
1296 0.00134394
1308 0.00138836
1320 0.00184515
1332 0.016071
1344 0.0494634
1356 0.00260061
1368 0.00333177
1380 0.0424512
1392 0.00511131
1404 0.00515697
1416 0.0616001
1428 0.0564879
1440 0.00451167
1452 0.00637206
1464 0.0429339
1476 0.00399239
1488 0.0129146
1500 0.109633
1512 0.0073322
1524 0.00545413
1536 0.0313762
1548 0.00407387
1560 0.00401202
1572 0.107234
1584 0.00434002
1596 0.00222655
1608 0.00200167
1620 0.00290312
1632 0.00868038
1644 0.106812
1656 0.00576515
1668 0.00687177
1680 0.0190596
1692 0.007969
1704 0.0592857
1716 0.0886979
1728 0.00776922
1740 0.0172387
1752 0.00733264
1764 0.00172222
1776 0.00149036
1788 0.00210087
1800 0.0130398
1812 0.0212412
1824 0.00809813
1836 0.0310856
1848 0.00999266
1860 0.00224855
1872 0.0014964
1884 0.00147495
1896 0.0288722
1908 0.00441164
1920 0.00657274
1932 0.0176697
1944 0.00530014
1956 0.0598741
1968 0.00722394
1980 0.0202935
1992 0.0201945
2004 0.0091695
2016 0.0445489
2028 0.00495045
2040 0.00385768
2052 0.00606109
2064 0.0351202
2076 0.0451537
2088 0.0031969
2100 0.00227587
2112 0.00915477
2124 0.01409
2136 0.00700137
2148 0.0170891
2160 0.00687713
2172 0.0280212
2184 0.0181815
2196 0.00586566
2208 0.0080873
2220 0.0120424
2232 0.0294399
2244 0.00559506
2256 0.0146262
2268 0.00981804
2280 0.0243812
2292 0.00410447
2304 0.00106238
2316 0.00136951
2328 0.0134304
2340 0.00363539
2352 0.00721456
2364 0.0108611
2376 0.0439462
2388 0.0115891
2400 0.0123076
2412 0.00747832
2424 0.01597
2436 0.00805068
2448 0.0110567
2460 0.0160253
2472 0.031264
2484 0.00754538
2496 0.00432913
2508 0.0119409
2520 0.0290593
2532 0.00595641
2544 0.00749856
2556 0.00539953
2568 0.0109491
2580 0.00948537
2592 0.00776662
2604 0.00169171
2616 0.00318764
2628 0.0100272
2640 0.0132158
2652 0.0241256
2664 0.00367162
2676 0.00175081
2688 0.00169699
2700 0.00481795
2712 0.0069313
2724 0.011396
2736 0.0229374
2748 0.00603618
2760 0.00832197
2772 0.00975412
2784 0.0116443
2796 0.00446252
2808 0.00508878
2820 0.0110159
2832 0.00172894
2844 0.00347053
2856 0.00575998
2868 0.00529153
2880 0.0054452
2892 0.012358
2904 0.0195251
2916 0.0077967
2928 0.00433788
2940 0.00536794
2952 0.00503574
2964 0.00452151
2976 0.00713391
2988 0.00148338
3000 0.00370419
3012 0.00441941
3024 0.00515099
3036 0.00784409
3048 0.00508775
3060 0.010187
3072 0.00825553
3084 0.00624334
3096 0.0113645
3108 0.0058117
3120 0.0105398
3132 0.0136729
3144 0.00450246
3156 0.00376543
3168 0.00859836
3180 0.00656667
3192 0.0102581
3204 0.014127
3216 0.00177274
3228 0.00322622
3240 0.00222584
3252 0.00304075
3264 0.00698306
3276 0.010093
3288 0.000478389
3300 0.00249667
3312 0.006648
3324 0.00207824
3336 0.00557943
3348 0.00891023
3360 0.00333892
3372 0.00260976
3384 0.00594184
3396 0.00535059
3408 0.00624445
3420 0.00452406
3432 0.0080383
3444 0.0135389
3456 0.0141094
3468 0.0159563
3480 0.0215199
3487 0.000232744