File: constrainednmf/example_data/BaTiO3_xrd_ramp/BTO_170K_tth.xy
0.000000000000000000e+00 0.00115427
12 0.0104468
24 0.0113167
36 0.00312151
48 0.00329547
60 0.00334055
72 0.00349005
84 0.00389708
96 0.00383078
108 0.00383259
120 0.00380032
132 0.0038205
144 0.00373875
156 0.00371893
168 0.00362445
180 0.00347732
192 0.00343715
204 0.00328002
216 0.00323239
228 0.00322948
240 0.00319378
252 0.00319701
264 0.00327226
276 0.00327274
288 0.00352818
300 0.00334061
312 0.00315159
324 0.00401388
336 0.0672242
348 0.00299163
360 0.00518751
372 0.00198288
384 0.00226258
396 0.00199966
408 0.00190165
420 0.00208496
432 0.00209281
444 0.00281741
456 0.00509065
468 0.0605731
480 0.0272872
492 0.00414538
504 0.00252301
516 0.00262165
528 0.00103321
540 0.000974303
552 0.00122781
564 0.0020845
576 0.0458205
588 0.00623608
600 0.00202486
612 0.0014428
624 0.00290233
636 0.00260479
648 0.00870385
660 0.0133551
672 0.258782
684 0.00577815
696 0.00373084
708 0.00209349
720 0.00157096
732 0.00193329
744 0.0210797
756 0.0102466
768 0.00150456
780 0.00228507
792 0.00234103
804 0.00524148
816 0.0962391
828 0.0301496
840 0.00388967
852 0.00176036
864 0.00158428
876 0.00134616
888 0.00151585
900 0.00115124
912 0.00117862
924 0.00181511
936 0.00643656
948 0.351483
960 0.00643571
972 0.00252567
984 0.0026383
996 0.00465397
1008 0.0757414
1020 0.00230167
1032 0.00198277
1044 0.00485764
1056 0.10258
1068 0.0353411
1080 0.00328018
1092 0.00313505
1104 0.013111
1116 0.0651272
1128 0.00238327
1140 0.00147215
1152 0.00434116
1164 0.109904
1176 0.0017781
1188 0.00121312
1200 0.00443772
1212 0.0364384
1224 0.00279103
1236 0.00427044
1248 0.0466728
1260 0.110335
1272 0.00459172
1284 0.00155053
1296 0.000949733
1308 0.00105202
1320 0.00153835
1332 0.00566608
1344 0.0363782
1356 0.00363617
1368 0.00280035
1380 0.0422829
1392 0.00912522
1404 0.00423393
1416 0.0285622
1428 0.0809255
1440 0.00531163
1452 0.00550317
1464 0.0706929
1476 0.00424074
1488 0.00818079
1500 0.131873
1512 0.0123535
1524 0.00460158
1536 0.04305
1548 0.00676993
1560 0.00383378
1572 0.0595684
1584 0.00641373
1596 0.00260421
1608 0.00202007
1620 0.00272407
1632 0.0058262
1644 0.098187
1656 0.00832644
1668 0.00486084
1680 0.025074
1692 0.00606173
1704 0.0343638
1716 0.125451
1728 0.0089704
1740 0.0225793
1752 0.0124438
1764 0.00213988
1776 0.00136161
1788 0.0015309
1800 0.00795052
1812 0.0372306
1824 0.00572625
1836 0.0573478
1848 0.0253078
1860 0.00252648
1872 0.00108138
1884 0.0010147
1896 0.0138181
1908 0.00801143
1920 0.00422731
1932 0.0232535
1944 0.00416518
1956 0.0486473
1968 0.0149606
1980 0.0113438
1992 0.0300885
2004 0.00596302
2016 0.0553574
2028 0.00666797
2040 0.00704586
2052 0.00558705
2064 0.0225643
2076 0.0670334
2088 0.00526797
2100 0.00166243
2112 0.00319528
2124 0.0288365
2136 0.0117042
2148 0.0194775
2160 0.0121039
2172 0.0158072
2184 0.0377736
2196 0.00471972
2208 0.0150316
2220 0.00536455
2232 0.0289148
2244 0.00707095
2256 0.0188272
2268 0.00611685
2280 0.0338604
2292 0.00966585
2304 0.00101761
2316 0.00111526
2328 0.00582534
2340 0.0030282
2352 0.0109834
2364 0.00804983
2376 0.0413859
2388 0.0180225
2400 0.0171263
2412 0.00900022
2424 0.0181802
2436 0.0109684
2448 0.0150055
2460 0.0112815
2472 0.0485013
2484 0.015182
2496 0.00427253
2508 0.00693373
2520 0.0382263
2532 0.00793213
2544 0.0108474
2556 0.00637982
2568 0.0112435
2580 0.012776
2592 0.0138639
2604 0.00234595
2616 0.00234985
2628 0.010188
2640 0.0095134
2652 0.0390845
2664 0.00830184
2676 0.001511
2688 0.00252841
2700 0.0028425
2712 0.0103558
2724 0.00983728
2736 0.0304187
2748 0.0106745
2760 0.00719863
2772 0.0120918
2784 0.0192883
2796 0.0102406
2808 0.00678156
2820 0.0160448
2832 0.00119916
2844 0.00146239
2856 0.00918935
2868 0.008679
2880 0.00794564
2892 0.0147587
2904 0.0311194
2916 0.0117068
2928 0.00672312
2940 0.00964749
2952 0.0070615
2964 0.00858776
2976 0.00975569
2988 0.00517379
3000 0.00165876
3012 0.00538299
3024 0.00778593
3036 0.0102947
3048 0.00854446
3060 0.0104451
3072 0.0120002
3084 0.0104406
3096 0.0150387
3108 0.00856299
3120 0.0108307
3132 0.026697
3144 0.00535475
3156 0.00422666
3168 0.0110558
3180 0.0101622
3192 0.0136121
3204 0.0237051
3216 0.00871898
3228 0.00487667
3240 0.00300817
3252 0.00384646
3264 0.00787783
3276 0.0157818
3288 0.00364046
3300 0.00248284
3312 0.00523954
3324 0.0026589
3336 0.0053337
3348 0.0141435
3360 0.00761291
3372 0.00314323
3384 0.0081591
3396 0.00874522
3408 0.00258165
3420 0.00441282
3432 0.0032956
3444 0.01325
3456 0.0143162
3468 0.0161131
3480 0.0146792
3487 0.000519547