File: constrainednmf/example_data/BaTiO3_xrd_ramp/BTO_160K_tth.xy
0.000000000000000000e+00 0.000153751
12 0.00989634
24 0.0109507
36 0.00296949
48 0.00318426
60 0.00325605
72 0.0033923
84 0.00371281
96 0.00354517
108 0.00344647
120 0.00330771
132 0.00319744
144 0.00303108
156 0.00284621
168 0.00266925
180 0.00246207
192 0.00229747
204 0.00206868
216 0.00200601
228 0.00192725
240 0.00187505
252 0.00184583
264 0.00183105
276 0.00192722
288 0.00219154
300 0.0020326
312 0.00188082
324 0.00266646
336 0.066322
348 0.00185741
360 0.00395498
372 0.000850892
384 0.00122793
396 0.000886244
408 0.000882514
420 0.00142878
432 0.00115095
444 0.00207847
456 0.00429084
468 0.0588159
480 0.0267105
492 0.00331194
504 0.00184003
516 0.00196014
528 0.000307856
540 0.000325287
552 0.000471553
564 0.00152334
576 0.0445529
588 0.00554589
600 0.00119703
612 0.000638748
624 0.00188794
636 0.00180559
648 0.00899703
660 0.0122965
672 0.262962
684 0.0048573
696 0.00284184
708 0.000945104
720 0.000717123
732 0.00110238
744 0.0196364
756 0.0092371
768 0.000711046
780 0.0012466
792 0.00126429
804 0.00415565
816 0.0927599
828 0.0296904
840 0.0025476
852 0.000899599
864 0.000606
876 0.000517233
888 0.000873424
900 0.000238682
912 0.000497692
924 0.000968801
936 0.00552157
948 0.352787
960 0.00560019
972 0.00164043
984 0.00216381
996 0.0041589
1008 0.0770422
1020 0.00184151
1032 0.0014697
1044 0.00420819
1056 0.0971554
1068 0.033795
1080 0.00285809
1092 0.00280576
1104 0.0122987
1116 0.0643511
1128 0.00202841
1140 0.0010571
1152 0.00399197
1164 0.112853
1176 0.00144687
1188 0.00075121
1200 0.00360429
1212 0.0364899
1224 0.0021107
1236 0.00368281
1248 0.0440562
1260 0.110695
1272 0.00391535
1284 0.000885655
1296 0.00040183
1308 0.000433941
1320 0.000642371
1332 0.00423106
1344 0.0377088
1356 0.00328517
1368 0.00185186
1380 0.0409112
1392 0.0078974
1404 0.00277072
1416 0.0265464
1428 0.0814374
1440 0.00450927
1452 0.0043114
1464 0.0703041
1476 0.0033015
1488 0.00664542
1500 0.132785
1512 0.0117245
1524 0.00304795
1536 0.0417895
1548 0.00534744
1560 0.00276877
1572 0.0577505
1584 0.00525144
1596 0.00120289
1608 0.000675637
1620 0.0014837
1632 0.00456471
1644 0.0967846
1656 0.00715637
1668 0.00383687
1680 0.0246515
1692 0.00469762
1704 0.0316364
1716 0.128845
1728 0.00843603
1740 0.0212235
1752 0.0113894
1764 0.00131714
1776 0.000581799
1788 0.0008334
1800 0.00704008
1812 0.0381591
1824 0.00546666
1836 0.0560267
1848 0.0242339
1860 0.00208335
1872 0.000679786
1884 0.0011286
1896 0.0139713
1908 0.00800111
1920 0.00396335
1932 0.0242349
1944 0.00441954
1956 0.0482168
1968 0.0148916
1980 0.0109247
1992 0.0314881
2004 0.00604847
2016 0.0553681
2028 0.00704333
2040 0.00737747
2052 0.0058914
2064 0.0223105
2076 0.0703661
2088 0.00562863
2100 0.00197115
2112 0.00315934
2124 0.0301321
2136 0.0115074
2148 0.0197867
2160 0.0122596
2172 0.0155235
2184 0.0392515
2196 0.00467266
2208 0.0161476
2220 0.00542535
2232 0.02997
2244 0.00674373
2256 0.0191353
2268 0.00563325
2280 0.0337865
2292 0.00880609
2304 0.00084251
2316 0.000256528
2328 0.00526079
2340 0.00231752
2352 0.0102948
2364 0.00737249
2376 0.0402764
2388 0.0175156
2400 0.0164936
2412 0.00799833
2424 0.0172205
2436 0.00954469
2448 0.0139177
2460 0.0093116
2472 0.0484311
2484 0.0138359
2496 0.00276305
2508 0.00531777
2520 0.0379806
2532 0.0069572
2544 0.00959077
2556 0.00494769
2568 0.0101712
2580 0.0114492
2592 0.0137617
2604 0.00166407
2616 0.000906259
2628 0.00916425
2640 0.00844
2652 0.0390987
2664 0.00801032
2676 0.000673124
2688 0.00194182
2700 0.00267801
2712 0.00976256
2724 0.00981076
2736 0.0310062
2748 0.0100102
2760 0.00744045
2772 0.0107736
2784 0.0205113
2796 0.0106847
2808 0.00657569
2820 0.0159261
2832 0.00228242
2844 0.000903645
2856 0.0092026
2868 0.00846666
2880 0.00685648
2892 0.013778
2904 0.0331591
2916 0.0112859
2928 0.00609277
2940 0.00920813
2952 0.00695402
2964 0.00797624
2976 0.00872548
2988 0.004273
3000 0.000439595
3012 0.00442295
3024 0.00594982
3036 0.00911636
3048 0.00609157
3060 0.00906849
3072 0.00968076
3084 0.00896768
3096 0.0134677
3108 0.00629812
3120 0.00903336
3132 0.0254118
3144 0.00402471
3156 0.00138045
3168 0.00952536
3180 0.00861644
3192 0.0108361
3204 0.0226096
3216 0.00769442
3228 0.0032231
3240 0.000797382
3252 0.00290181
3264 0.00583539
3276 0.0159888
3288 0.00314829
3300 0.00185031
3312 0.00695754
3324 0.00228664
3336 0.00881627
3348 0.0176463
3360 0.00870949
3372 0.00711361
3384 0.00758352
3396 0.0115255
3408 0.00866094
3420 0.00466525
3432 0.00388644
3444 0.00946044
3456 0.00652511
3468 0.00723185
3480 0.00777828
3487 0.0154682