File: constrainednmf/example_data/BaTiO3_xrd_ramp/BTO_355K_tth.xy
0.000000000000000000e+00 0.000808919
12 0.0127198
24 0.0133739
36 0.00300257
48 0.00316753
60 0.00316485
72 0.00332653
84 0.00376383
96 0.00361573
108 0.00362682
120 0.00358672
132 0.00359357
144 0.00352689
156 0.00345875
168 0.00338263
180 0.00331957
192 0.00317353
204 0.00316266
216 0.00307881
228 0.00313112
240 0.00314926
252 0.00310208
264 0.00327518
276 0.00335254
288 0.00361889
300 0.00319237
312 0.00298902
324 0.00397965
336 0.0672924
348 0.00234841
360 0.00503278
372 0.00147454
384 0.00144251
396 0.0014417
408 0.00159182
420 0.00159103
432 0.00180676
444 0.00266839
456 0.00525531
468 0.0879903
480 0.023614
492 0.00387388
504 0.00237861
516 0.00197034
528 0.000774035
540 0.000712625
552 0.000871627
564 0.00209035
576 0.0669646
588 0.00512471
600 0.00137685
612 0.00119948
624 0.00241933
636 0.00212881
648 0.00293381
660 0.0203989
672 0.330788
684 0.00494161
696 0.00208352
708 0.00138927
720 0.0012805
732 0.0019755
744 0.0474052
756 0.00703077
768 0.00168577
780 0.00163066
792 0.00248054
804 0.00620448
816 0.191598
828 0.0212734
840 0.00352659
852 0.00156019
864 0.00118087
876 0.000923104
888 0.000820768
900 0.000824206
912 0.000932117
924 0.00165728
936 0.00784705
948 0.276907
960 0.0049339
972 0.00190725
984 0.00149061
996 0.00728765
1008 0.053885
1020 0.00152254
1032 0.00182414
1044 0.00619685
1056 0.115586
1068 0.0195993
1080 0.00301918
1092 0.00259899
1104 0.0336773
1116 0.0558474
1128 0.00160031
1140 0.00107665
1152 0.00489697
1164 0.0402894
1176 0.00149486
1188 0.0013212
1200 0.00646469
1212 0.03038
1224 0.00259587
1236 0.00534567
1248 0.0954445
1260 0.0614471
1272 0.00436377
1284 0.00128281
1296 0.000706342
1308 0.000755976
1320 0.00108682
1332 0.0190016
1344 0.0489529
1356 0.00240567
1368 0.00318073
1380 0.039456
1392 0.00556482
1404 0.00453964
1416 0.0634572
1428 0.0798155
1440 0.00444366
1452 0.00619422
1464 0.0433897
1476 0.00374747
1488 0.013646
1500 0.0947353
1512 0.00764006
1524 0.00525687
1536 0.0264854
1548 0.0039668
1560 0.00358955
1572 0.105457
1584 0.00402014
1596 0.00210048
1608 0.0022463
1620 0.00228188
1632 0.00889963
1644 0.0941097
1656 0.00559076
1668 0.00742923
1680 0.0171542
1692 0.00725775
1704 0.0600605
1716 0.115081
1728 0.00808337
1740 0.0153564
1752 0.00980917
1764 0.00167977
1776 0.000996762
1788 0.00167145
1800 0.0135814
1812 0.026711
1824 0.00880507
1836 0.0271856
1848 0.0132611
1860 0.00188282
1872 0.000992578
1884 0.00147081
1896 0.0289874
1908 0.00556787
1920 0.00693439
1932 0.0184509
1944 0.00520866
1956 0.0549384
1968 0.00840693
1980 0.0209649
1992 0.0253962
2004 0.00936013
2016 0.0423759
2028 0.00598659
2040 0.00355081
2052 0.00708533
2064 0.0362505
2076 0.0589479
2088 0.00326665
2100 0.00159512
2112 0.011131
2124 0.0112244
2136 0.00864697
2148 0.0158771
2160 0.00923502
2172 0.0291493
2184 0.0241223
2196 0.0059887
2208 0.00971927
2220 0.0127313
2232 0.0255303
2244 0.00580916
2256 0.0135572
2268 0.0118089
2280 0.0196548
2292 0.00414746
2304 0.000910616
2316 0.00137655
2328 0.0128745
2340 0.00326657
2352 0.00586451
2364 0.0112806
2376 0.0412943
2388 0.0146793
2400 0.0117638
2412 0.00861894
2424 0.0141312
2436 0.00918496
2448 0.0100774
2460 0.0179248
2472 0.026984
2484 0.00776146
2496 0.00455915
2508 0.0130625
2520 0.0288541
2532 0.00529139
2544 0.00760934
2556 0.00447196
2568 0.0115502
2580 0.00928409
2592 0.0109593
2604 0.0021337
2616 0.00273312
2628 0.00788109
2640 0.0145141
2652 0.0219695
2664 0.00365568
2676 0.00149475
2688 0.00164598
2700 0.00540151
2712 0.00747454
2724 0.0136409
2736 0.0226243
2748 0.00666448
2760 0.00875162
2772 0.00956292
2784 0.0147948
2796 0.00427601
2808 0.00553548
2820 0.010696
2832 0.000139261
2844 0.00340452
2856 0.00476728
2868 0.00694239
2880 0.00658886
2892 0.0112927
2904 0.0232983
2916 0.0079912
2928 0.00526456
2940 0.005945
2952 0.00452404
2964 0.0068641
2976 0.00779367
2988 0.00301881
3000 0.00268747
3012 0.00326067
3024 0.00679831
3036 0.00778927
3048 0.00393458
3060 0.0111384
3072 0.00773685
3084 0.0060095
3096 0.0125465
3108 0.00648428
3120 0.0115149
3132 0.0122299
3144 0.00399352
3156 0.00479846
3168 0.00962285
3180 0.00776822
3192 0.0110387
3204 0.0166137
3216 0.00455282
3228 0.00408964
3240 0.00257007
3252 0.00465493
3264 0.00546028
3276 0.0089086
3288 0.00179518
3300 0.00295795
3312 0.00432874
3324 0.00611157
3336 0.00618104
3348 0.0100742
3360 0.00522229
3372 0.00119669
3384 0.00757143
3396 0.00400691
3408 0.00409671
3420 0.00445184
3432 0.00499872
3444 0.00848822
3456 0.0139187
3468 0.00907391
3480 0.0130913
3487 0.0167669