File: constrainednmf/example_data/BaTiO3_xrd_ramp/BTO_405K_tth.xy
0.000000000000000000e+00 2.98721e-05
12 0.0119712
24 0.0126211
36 0.00263265
48 0.00270747
60 0.00274383
72 0.00293757
84 0.00329246
96 0.00319641
108 0.00309315
120 0.00299393
132 0.00298298
144 0.00281283
156 0.0027106
168 0.00262327
180 0.00251013
192 0.00238935
204 0.00226964
216 0.00222388
228 0.00217969
240 0.00221417
252 0.00229494
264 0.00233234
276 0.00248727
288 0.00269181
300 0.00233774
312 0.00213768
324 0.00299837
336 0.055266
348 0.00153289
360 0.00423364
372 0.00089107
384 0.000886273
396 0.000803645
408 0.000949278
420 0.00109448
432 0.00120509
444 0.00215531
456 0.00456955
468 0.0856074
480 0.0205564
492 0.00319729
504 0.0018508
516 0.00153948
528 0.000245359
540 0.000344878
552 0.00047869
564 0.00166511
576 0.0710298
588 0.00413279
600 0.00088481
612 0.000482941
624 0.00172148
636 0.00156451
648 0.00218627
660 0.0180356
672 0.24758
684 0.00403486
696 0.00144834
708 0.000684551
720 0.000640945
732 0.00134623
744 0.0377565
756 0.00513479
768 0.000751745
780 0.000795048
792 0.00189755
804 0.0055216
816 0.170356
828 0.0174932
840 0.00273187
852 0.000999329
864 0.000639825
876 0.000337954
888 0.000317556
900 3.81906e-05
912 0.000309086
924 0.00111608
936 0.00705718
948 0.298261
960 0.00403153
972 0.00138684
984 0.000752636
996 0.00537206
1008 0.038716
1020 0.00100916
1032 0.0012326
1044 0.0056798
1056 0.132889
1068 0.0146022
1080 0.00239592
1092 0.00208006
1104 0.0243372
1116 0.0324394
1128 0.0013442
1140 0.000541921
1152 0.00481645
1164 0.0291326
1176 0.000889254
1188 0.000908215
1200 0.00557056
1212 0.0205155
1224 0.00202754
1236 0.00468836
1248 0.0789278
1260 0.0392369
1272 0.00322964
1284 0.00104563
1296 0.000297073
1308 0.000180438
1320 0.000606072
1332 0.0113764
1344 0.0425945
1356 0.00156856
1368 0.00259793
1380 0.0452212
1392 0.00367919
1404 0.00405017
1416 0.0541265
1428 0.0414162
1440 0.00359048
1452 0.00532722
1464 0.0395541
1476 0.00296877
1488 0.0106849
1500 0.122213
1512 0.00582899
1524 0.00395174
1536 0.0355284
1548 0.00251725
1560 0.00277018
1572 0.106786
1584 0.0029907
1596 0.000951069
1608 0.000899015
1620 0.00177535
1632 0.00704049
1644 0.111881
1656 0.00423013
1668 0.00555875
1680 0.0181471
1692 0.00573845
1704 0.0546198
1716 0.0655616
1728 0.00630126
1740 0.0179247
1752 0.00468597
1764 0.000867231
1776 0.000336907
1788 0.00101011
1800 0.0114272
1812 0.0155676
1824 0.00657288
1836 0.0364577
1848 0.00779545
1860 0.000782423
1872 0.000307812
1884 0.000343125
1896 0.0266824
1908 0.00285073
1920 0.00489792
1932 0.0148569
1944 0.00399181
1956 0.0628332
1968 0.00542542
1980 0.0170855
1992 0.0146415
2004 0.00763861
2016 0.0479288
2028 0.00387077
2040 0.00322537
2052 0.00483519
2064 0.0321198
2076 0.0322755
2088 0.00235873
2100 0.00154798
2112 0.00623023
2124 0.0166918
2136 0.00520658
2148 0.0173612
2160 0.00544912
2172 0.0254311
2184 0.0122361
2196 0.00403707
2208 0.00509794
2220 0.00989173
2232 0.0279959
2244 0.00414436
2256 0.014262
2268 0.0073231
2280 0.0268962
2292 0.00231559
2304 0.00036825
2316 0.00102772
2328 0.0123723
2340 0.00237611
2352 0.00723925
2364 0.00770298
2376 0.0453915
2388 0.00842136
2400 0.0117348
2412 0.00549547
2424 0.0159918
2436 0.00585672
2448 0.0102686
2460 0.0130949
2472 0.0356197
2484 0.00488137
2496 0.00309882
2508 0.00944038
2520 0.027921
2532 0.00465043
2544 0.0056361
2556 0.00468479
2568 0.00807716
2580 0.00871276
2592 0.0049966
2604 0.00069192
2616 0.00166196
2628 0.00832585
2640 0.0108205
2652 0.026153
2664 0.00243829
2676 0.000870764
2688 0.000809494
2700 0.0030183
2712 0.00745931
2724 0.00823691
2736 0.0234091
2748 0.00539467
2760 0.00569078
2772 0.00954061
2784 0.0091598
2796 0.00536235
2808 0.00420455
2820 0.00995888
2832 0.000654431
2844 0.00240711
2856 0.00600381
2868 0.00330774
2880 0.00505459
2892 0.0119802
2904 0.0148025
2916 0.00767806
2928 0.00292428
2940 0.00621913
2952 0.00402562
2964 0.00337024
2976 0.00599935
2988 0.0022314
3000 0.00144665
3012 0.00247082
3024 0.0035323
3036 0.00661498
3048 0.00433654
3060 0.00684634
3072 0.00882575
3084 0.00593466
3096 0.00982791
3108 0.00460862
3120 0.00869939
3132 0.0122779
3144 0.00287483
3156 0.00424144
3168 0.00439877
3180 0.00735605
3192 0.00691327
3204 0.0130433
3216 0.00282552
3228 0.00115802
3240 0.00105256
3252 0.00294469
3264 0.00317142
3276 0.00605003
3288 0.000728617
3300 0.00196305
3312 0.00191158
3324 0.00107497
3336 0.00299293
3348 0.00632029
3360 0.00290571
3372 0.00105423
3384 0.00598353
3396 0.0066935
3408 0.00493224
3420 0.00597045
3432 0.00494107
3444 0.00804947
3456 0.0092138
3468 0.0113791
3480 0.0232271
3487 2.83954e-05