File: constrainednmf/example_data/BaTiO3_xrd_ramp/BTO_180K_tth.xy
0.000000000000000000e+00 8.11684e-05
12 0.00982356
24 0.0110621
36 0.00299036
48 0.00318255
60 0.00333377
72 0.00340364
84 0.00373619
96 0.00361619
108 0.00342784
120 0.00327233
132 0.0031759
144 0.00297384
156 0.00277021
168 0.00261467
180 0.00244029
192 0.00221157
204 0.00204807
216 0.00189361
228 0.00186404
240 0.00182852
252 0.00177679
264 0.00179039
276 0.00186338
288 0.00220603
300 0.00193917
312 0.00180716
324 0.00274516
336 0.0661443
348 0.00177338
360 0.00396531
372 0.000860277
384 0.00125883
396 0.000883705
408 0.000965833
420 0.00127344
432 0.00128717
444 0.00206902
456 0.00428515
468 0.0614468
480 0.0264889
492 0.00337616
504 0.00165772
516 0.00184581
528 0.000262989
540 0.000311771
552 0.000363679
564 0.00146064
576 0.045744
588 0.00536213
600 0.00113576
612 0.000669872
624 0.00191235
636 0.00174956
648 0.00767717
660 0.0128793
672 0.25154
684 0.00477007
696 0.00304939
708 0.0010068
720 0.000591942
732 0.000975472
744 0.0212251
756 0.00919873
768 0.000577537
780 0.00119948
792 0.00122098
804 0.00413029
816 0.0990144
828 0.0291286
840 0.00281275
852 0.00073612
864 0.000446102
876 0.000345654
888 0.000813835
900 7.3273e-05
912 0.000441662
924 0.00114912
936 0.00561123
948 0.349477
960 0.00577777
972 0.00182596
984 0.00218536
996 0.00435182
1008 0.0732696
1020 0.00165378
1032 0.00152978
1044 0.00448254
1056 0.108938
1068 0.0360141
1080 0.00324162
1092 0.00280133
1104 0.0132265
1116 0.0651681
1128 0.00175031
1140 0.000889219
1152 0.00392815
1164 0.106556
1176 0.00149268
1188 0.000790863
1200 0.00398459
1212 0.0354021
1224 0.00208406
1236 0.00374129
1248 0.0484047
1260 0.1101
1272 0.003932
1284 0.000893335
1296 0.000514723
1308 0.000263571
1320 0.000849424
1332 0.00455358
1344 0.0327665
1356 0.00288033
1368 0.00172663
1380 0.0423872
1392 0.00837428
1404 0.0028446
1416 0.029532
1428 0.0788525
1440 0.00428342
1452 0.00407109
1464 0.0692106
1476 0.0027496
1488 0.00705179
1500 0.128301
1512 0.0110378
1524 0.00321286
1536 0.0412412
1548 0.00501819
1560 0.0022603
1572 0.0593175
1584 0.00475624
1596 0.000901685
1608 0.000769281
1620 0.0012928
1632 0.00441558
1644 0.0966086
1656 0.0065521
1668 0.00377758
1680 0.0227693
1692 0.00486609
1704 0.0352189
1716 0.120364
1728 0.00789213
1740 0.0229259
1752 0.011575
1764 0.000742594
1776 0.0001999
1788 0.000744544
1800 0.00745705
1812 0.0351579
1824 0.00522445
1836 0.0583504
1848 0.0266087
1860 0.00214204
1872 0.000811872
1884 0.000957608
1896 0.0137646
1908 0.00777742
1920 0.00412129
1932 0.0224566
1944 0.00457328
1956 0.0495851
1968 0.0153506
1980 0.0121534
1992 0.029336
2004 0.00652007
2016 0.0559022
2028 0.00715567
2040 0.00772486
2052 0.00596829
2064 0.0247515
2076 0.0641959
2088 0.00585339
2100 0.00210102
2112 0.00410141
2124 0.0293156
2136 0.0125889
2148 0.0199172
2160 0.0122915
2172 0.0164913
2184 0.0365885
2196 0.00472768
2208 0.0150037
2220 0.00551611
2232 0.0262201
2244 0.00721546
2256 0.018599
2268 0.00587422
2280 0.033164
2292 0.00985038
2304 0.000615505
2316 0.000293111
2328 0.00527822
2340 0.00216246
2352 0.00974174
2364 0.00764261
2376 0.040003
2388 0.0166546
2400 0.0157304
2412 0.007765
2424 0.0165022
2436 0.00975536
2448 0.0131869
2460 0.0100668
2472 0.046767
2484 0.0140019
2496 0.0025871
2508 0.00586735
2520 0.0364803
2532 0.007031
2544 0.00867161
2556 0.00541076
2568 0.00847423
2580 0.0117393
2592 0.011742
2604 0.000900266
2616 0.000808393
2628 0.00838386
2640 0.00914065
2652 0.0366367
2664 0.0079529
2676 0.0002006
2688 0.00151161
2700 0.00248909
2712 0.00993885
2724 0.00954796
2736 0.0298209
2748 0.0103906
2760 0.00622218
2772 0.0113886
2784 0.0185116
2796 0.0110281
2808 0.00630747
2820 0.0165805
2832 0.00213909
2844 0.00103429
2856 0.00945374
2868 0.00772774
2880 0.0065911
2892 0.0150912
2904 0.0289287
2916 0.0119947
2928 0.00611631
2940 0.00918026
2952 0.00635976
2964 0.00652183
2976 0.00820238
2988 0.0042842
3000 0.000000000000000000e+00
3012 0.00352733
3024 0.0062389
3036 0.00755538
3048 0.00642225
3060 0.00797886
3072 0.00836841
3084 0.00889226
3096 0.0109396
3108 0.00622356
3120 0.00959538
3132 0.0227771
3144 0.00386534
3156 0.00153858
3168 0.00947638
3180 0.00804337
3192 0.0113672
3204 0.0215605
3216 0.00876522
3228 0.00318053
3240 0.000859099
3252 0.00204649
3264 0.00660629
3276 0.0139918
3288 0.00372456
3300 0.00159717
3312 0.00538087
3324 0.00271376
3336 0.00807945
3348 0.0148037
3360 0.0118481
3372 0.00641707
3384 0.00915377
3396 0.0103509
3408 0.00853055
3420 0.00375238
3432 0.00371939
3444 0.0115154
3456 0.0115667
3468 0.00861822
3480 0.00685897
3487 0.00171674