File: constrainednmf/example_data/BaTiO3_xrd_ramp/BTO_260K_tth.xy
0.000000000000000000e+00 0.00048989
12 0.0105029
24 0.0112536
36 0.002963
48 0.00312684
60 0.00327891
72 0.00343745
84 0.00375389
96 0.00373175
108 0.0036227
120 0.00352809
132 0.00341984
144 0.00339578
156 0.00317634
168 0.0030738
180 0.0028798
192 0.00281052
204 0.00263558
216 0.00253027
228 0.00247297
240 0.00244199
252 0.00244282
264 0.0025207
276 0.0026403
288 0.00295937
300 0.0026099
312 0.00247224
324 0.00336839
336 0.0651038
348 0.00192822
360 0.00466181
372 0.00124619
384 0.00109713
396 0.00107866
408 0.0012453
420 0.0015743
432 0.00151184
444 0.00238416
456 0.00488322
468 0.0790726
480 0.0236468
492 0.00359768
504 0.00197544
516 0.00207463
528 0.0006625
540 0.000627144
552 0.000848194
564 0.00181337
576 0.0568225
588 0.0050822
600 0.00136041
612 0.00083662
624 0.00213599
636 0.00187524
648 0.00252042
660 0.0160267
672 0.241947
684 0.00470277
696 0.00243284
708 0.00125984
720 0.000917935
732 0.00182416
744 0.0345093
756 0.00810839
768 0.00137589
780 0.00114733
792 0.00202449
804 0.00536253
816 0.14662
828 0.0239002
840 0.00319834
852 0.0014141
864 0.000906856
876 0.000545277
888 0.000880779
900 0.000616215
912 0.000707403
924 0.00142757
936 0.00667881
948 0.338402
960 0.00502569
972 0.00189827
984 0.00173244
996 0.0052387
1008 0.0547575
1020 0.00156359
1032 0.00155219
1044 0.00522211
1056 0.163277
1068 0.0295408
1080 0.00293427
1092 0.00266389
1104 0.0204668
1116 0.075404
1128 0.00214707
1140 0.0012109
1152 0.00433327
1164 0.0665004
1176 0.00185987
1188 0.00091855
1200 0.00582461
1212 0.0328434
1224 0.00236241
1236 0.00450486
1248 0.0751867
1260 0.0890124
1272 0.00401403
1284 0.00112775
1296 0.000546583
1308 0.000540463
1320 0.00108588
1332 0.00877118
1344 0.0189598
1356 0.00225958
1368 0.00244941
1380 0.0492651
1392 0.00809004
1404 0.00364875
1416 0.0522605
1428 0.0851684
1440 0.004166
1452 0.00548751
1464 0.0601607
1476 0.00316142
1488 0.0102682
1500 0.091859
1512 0.00867841
1524 0.00384819
1536 0.0362266
1548 0.00396821
1560 0.00265079
1572 0.0781086
1584 0.00413748
1596 0.00125964
1608 0.000815102
1620 0.00149082
1632 0.006386
1644 0.0835825
1656 0.0060159
1668 0.00570391
1680 0.0185221
1692 0.00576415
1704 0.0608743
1716 0.0969283
1728 0.00725056
1740 0.0277415
1752 0.0184828
1764 0.00119611
1776 0.00104054
1788 0.00119007
1800 0.0118488
1812 0.0259893
1824 0.00685687
1836 0.0609675
1848 0.0313056
1860 0.00218569
1872 0.000813741
1884 0.000967692
1896 0.0145915
1908 0.00571591
1920 0.00627478
1932 0.0170034
1944 0.0050343
1956 0.0562495
1968 0.0122425
1980 0.0174462
1992 0.0262422
2004 0.00799456
2016 0.0568524
2028 0.00758503
2040 0.00729535
2052 0.00808163
2064 0.0375034
2076 0.0493237
2088 0.00440295
2100 0.00192417
2112 0.00543906
2124 0.0203412
2136 0.0180263
2148 0.0198445
2160 0.0133022
2172 0.0198627
2184 0.0285129
2196 0.00580329
2208 0.0113113
2220 0.00899917
2232 0.0139198
2244 0.00666566
2256 0.0154
2268 0.007974
2280 0.0231389
2292 0.00845953
2304 0.000991282
2316 0.000841628
2328 0.00922376
2340 0.00238135
2352 0.00898191
2364 0.0102126
2376 0.0412443
2388 0.0175169
2400 0.0129331
2412 0.0101579
2424 0.0164798
2436 0.00991177
2448 0.0111151
2460 0.0150513
2472 0.0362199
2484 0.0179794
2496 0.00342694
2508 0.00991069
2520 0.027503
2532 0.00646746
2544 0.00619854
2556 0.00732455
2568 0.0063169
2580 0.0126513
2592 0.00899273
2604 0.00126672
2616 0.00217512
2628 0.0084567
2640 0.0136066
2652 0.0263537
2664 0.00641663
2676 0.000604332
2688 0.00219375
2700 0.00293944
2712 0.00827887
2724 0.0118856
2736 0.0236119
2748 0.0126369
2760 0.00468332
2772 0.0125933
2784 0.012011
2796 0.00677621
2808 0.0081914
2820 0.0149219
2832 0.0007116
2844 0.0017131
2856 0.00804462
2868 0.00748494
2880 0.00592699
2892 0.0169737
2904 0.0186535
2916 0.00892121
2928 0.00555095
2940 0.00890371
2952 0.00548457
2964 0.00524974
2976 0.00795522
2988 0.00255099
3000 0.000559698
3012 0.00374924
3024 0.00666186
3036 0.00602587
3048 0.00711711
3060 0.00702271
3072 0.00801109
3084 0.00933939
3096 0.00736997
3108 0.00476696
3120 0.00973146
3132 0.0147921
3144 0.00557877
3156 0.0035065
3168 0.00849948
3180 0.00714853
3192 0.0133858
3204 0.0147721
3216 0.00539875
3228 0.00165036
3240 0.000656339
3252 0.00216425
3264 0.0072557
3276 0.00963692
3288 0.00400953
3300 0.0023772
3312 0.0023431
3324 0.00338879
3336 0.00601399
3348 0.00942203
3360 0.00528449
3372 0.00301507
3384 0.00824957
3396 0.00475147
3408 0.00434925
3420 0.000412048
3432 0.00427693
3444 0.00779323
3456 0.00925229
3468 0.0156445
3480 0.0124071
3487 0.000446319