File: constrainednmf/example_data/BaTiO3_xrd_ramp/BTO_395K_tth.xy
0.000000000000000000e+00 0.00019316
12 0.0122339
24 0.0129787
36 0.00290465
48 0.00302424
60 0.00307067
72 0.0031767
84 0.00355609
96 0.00343925
108 0.00326248
120 0.00316695
132 0.00308082
144 0.00302433
156 0.00280614
168 0.00271
180 0.00258542
192 0.00244611
204 0.00232893
216 0.00226197
228 0.00224735
240 0.00222316
252 0.00223746
264 0.00235951
276 0.00247211
288 0.00267525
300 0.00237595
312 0.00205121
324 0.00304239
336 0.0577804
348 0.00149595
360 0.00423733
372 0.000803697
384 0.000850302
396 0.000773035
408 0.000798857
420 0.00106627
432 0.00124287
444 0.00202139
456 0.00478736
468 0.086742
480 0.0210645
492 0.00325801
504 0.00178028
516 0.0015875
528 0.000220578
540 0.000304876
552 0.000375549
564 0.00164937
576 0.070482
588 0.00440013
600 0.000999698
612 0.000686512
624 0.00193396
636 0.00164193
648 0.00246863
660 0.0188052
672 0.267958
684 0.004441
696 0.00194394
708 0.000879652
720 0.000864013
732 0.00132098
744 0.040442
756 0.00572967
768 0.00100633
780 0.00105021
792 0.0020122
804 0.00589567
816 0.177721
828 0.0184002
840 0.0032149
852 0.00112454
864 0.000821547
876 0.000499662
888 0.000863306
900 0.00047658
912 0.00038303
924 0.00122579
936 0.00742392
948 0.292345
960 0.00467686
972 0.00196451
984 0.00111542
996 0.00613496
1008 0.0423422
1020 0.00138652
1032 0.00141616
1044 0.00578843
1056 0.129388
1068 0.0156648
1080 0.00270542
1092 0.00240061
1104 0.0267148
1116 0.036836
1128 0.00125037
1140 0.00103586
1152 0.00492667
1164 0.0314377
1176 0.00141352
1188 0.00081394
1200 0.00571784
1212 0.0228925
1224 0.00220044
1236 0.0049191
1248 0.0839653
1260 0.0426773
1272 0.00368733
1284 0.0011133
1296 0.000515379
1308 0.000100867
1320 0.000762314
1332 0.0131785
1344 0.0464066
1356 0.00184327
1368 0.00253787
1380 0.0431433
1392 0.00377158
1404 0.00370147
1416 0.0580879
1428 0.0477017
1440 0.00353584
1452 0.00526452
1464 0.0406926
1476 0.00289953
1488 0.0113234
1500 0.115088
1512 0.00585671
1524 0.00389701
1536 0.0324368
1548 0.00277588
1560 0.00287454
1572 0.106515
1584 0.0028977
1596 0.00104422
1608 0.000304289
1620 0.00149012
1632 0.00739506
1644 0.108711
1656 0.00437528
1668 0.00562949
1680 0.0182784
1692 0.00572057
1704 0.0571591
1716 0.0764486
1728 0.0063301
1740 0.0168522
1752 0.00533846
1764 0.000914005
1776 0.000471729
1788 0.00103578
1800 0.0120519
1812 0.017622
1824 0.00700059
1836 0.0325689
1848 0.00834851
1860 0.00105422
1872 0.000279671
1884 0.000753887
1896 0.0279928
1908 0.0036982
1920 0.00540442
1932 0.0165521
1944 0.00444314
1956 0.0612628
1968 0.00649362
1980 0.0184295
1992 0.0175053
2004 0.0084501
2016 0.0459736
2028 0.00401377
2040 0.00326984
2052 0.00554699
2064 0.0338038
2076 0.0380559
2088 0.00268085
2100 0.00188235
2112 0.00758059
2124 0.0149818
2136 0.00643514
2148 0.016873
2160 0.0057497
2172 0.0270075
2184 0.0148052
2196 0.00527939
2208 0.00617743
2220 0.0103454
2232 0.0288625
2244 0.00451877
2256 0.0142823
2268 0.00861365
2280 0.0253676
2292 0.00237853
2304 0.000261702
2316 0.000208947
2328 0.012813
2340 0.0030091
2352 0.00691475
2364 0.00839539
2376 0.043777
2388 0.0096347
2400 0.0114628
2412 0.00552848
2424 0.0152111
2436 0.0062793
2448 0.00992796
2460 0.0138294
2472 0.0327443
2484 0.00577005
2496 0.00295027
2508 0.0100343
2520 0.0277575
2532 0.00451328
2544 0.0059788
2556 0.00399352
2568 0.00875609
2580 0.0080277
2592 0.00533365
2604 0.000919443
2616 0.000938897
2628 0.00822944
2640 0.0117733
2652 0.024645
2664 0.00240145
2676 0.000873298
2688 0.00024359
2700 0.00369088
2712 0.00675401
2724 0.0102182
2736 0.0234466
2748 0.00494257
2760 0.00630667
2772 0.00838554
2784 0.00969305
2796 0.00486479
2808 0.00411148
2820 0.00960399
2832 0.00052112
2844 0.00248669
2856 0.00523685
2868 0.00491972
2880 0.0052636
2892 0.0118258
2904 0.0177365
2916 0.00759458
2928 0.00396024
2940 0.00540162
2952 0.00353089
2964 0.00406509
2976 0.00835398
2988 0.00125695
3000 0.00137186
3012 0.00193134
3024 0.00451877
3036 0.00692008
3048 0.00336475
3060 0.0075488
3072 0.00789806
3084 0.00686985
3096 0.00959729
3108 0.00413675
3120 0.00966267
3132 0.0128775
3144 0.00161691
3156 0.00450476
3168 0.00687122
3180 0.00575419
3192 0.00896719
3204 0.0128407
3216 0.00247192
3228 0.00284979
3240 0.00228486
3252 0.00319508
3264 0.00422531
3276 0.00807149
3288 0.00111822
3300 0.00119954
3312 0.00488081
3324 0.00344184
3336 0.00580052
3348 0.00941515
3360 0.00515383
3372 0.00320976
3384 0.00447427
3396 0.00592203
3408 0.00480169
3420 0.00310348
3432 0.00173966
3444 0.00744201
3456 0.00664618
3468 0.00873058
3480 0.0123161
3487 0.0258781