File: constrainednmf/example_data/BaTiO3_xrd_ramp/BTO_325K_tth.xy
0.000000000000000000e+00 0.00150937
12 0.0128604
24 0.0133625
36 0.00285079
48 0.00287139
60 0.00289051
72 0.00303953
84 0.00353034
96 0.00351881
108 0.0035302
120 0.00361124
132 0.00368309
144 0.00367842
156 0.00374709
168 0.00376203
180 0.00371353
192 0.00369221
204 0.00361715
216 0.00358361
228 0.00362961
240 0.00361407
252 0.0036928
264 0.00381759
276 0.00395187
288 0.0042139
300 0.00384016
312 0.00350485
324 0.00450807
336 0.0722147
348 0.00278642
360 0.00554103
372 0.00191709
384 0.0018149
396 0.00183416
408 0.00177657
420 0.00194231
432 0.00205067
444 0.00306811
456 0.00557515
468 0.0859453
480 0.0248861
492 0.00404376
504 0.00212386
516 0.0024221
528 0.000929949
540 0.000564063
552 0.00101322
564 0.00229692
576 0.0633514
588 0.00556119
600 0.00170552
612 0.001284
624 0.00292335
636 0.00220951
648 0.0031278
660 0.0207151
672 0.346273
684 0.00529666
696 0.00263113
708 0.0018344
720 0.00175777
732 0.00237924
744 0.0486194
756 0.00837464
768 0.0020311
780 0.00194348
792 0.00314888
804 0.00652497
816 0.191064
828 0.0233035
840 0.00404048
852 0.00215017
864 0.0017998
876 0.00118207
888 0.00145532
900 0.00117166
912 0.00117261
924 0.00189731
936 0.00785805
948 0.280952
960 0.00555887
972 0.00232271
984 0.00188348
996 0.00726017
1008 0.0594779
1020 0.00166725
1032 0.00190206
1044 0.00601817
1056 0.115412
1068 0.0226103
1080 0.00272762
1092 0.0022427
1104 0.0350469
1116 0.0703781
1128 0.00154641
1140 0.00110322
1152 0.00454064
1164 0.0488069
1176 0.0012646
1188 0.000865345
1200 0.00643151
1212 0.0325268
1224 0.0026523
1236 0.00479586
1248 0.0957958
1260 0.0774327
1272 0.00351099
1284 0.00138019
1296 0.000435092
1308 0.00081281
1320 0.00133607
1332 0.0196892
1344 0.0414347
1356 0.00230087
1368 0.00334848
1380 0.0391072
1392 0.00610722
1404 0.00463466
1416 0.0623479
1428 0.102598
1440 0.00497117
1452 0.00622837
1464 0.0432877
1476 0.00399576
1488 0.0140438
1500 0.0848683
1512 0.00897091
1524 0.00588011
1536 0.0257775
1548 0.00460754
1560 0.00434726
1572 0.102589
1584 0.0049715
1596 0.0025753
1608 0.0022827
1620 0.00303544
1632 0.00872113
1644 0.0830454
1656 0.00652071
1668 0.00732605
1680 0.0169475
1692 0.00747157
1704 0.0606715
1716 0.125264
1728 0.00854397
1740 0.0162491
1752 0.0132021
1764 0.00198297
1776 0.00140057
1788 0.00222727
1800 0.0133829
1812 0.0300542
1824 0.00907991
1836 0.0291681
1848 0.0175392
1860 0.00185576
1872 0.000741718
1884 0.000757198
1896 0.0280087
1908 0.0074782
1920 0.0066195
1932 0.0173789
1944 0.00504969
1956 0.0522032
1968 0.0094405
1980 0.0206968
1992 0.0269143
2004 0.00861113
2016 0.0431159
2028 0.00638735
2040 0.0032069
2052 0.00767246
2064 0.036936
2076 0.0646338
2088 0.00309698
2100 0.000931063
2112 0.0115188
2124 0.0104046
2136 0.0101411
2148 0.0157846
2160 0.0115989
2172 0.0283374
2184 0.0270229
2196 0.00590375
2208 0.0112668
2220 0.0125053
2232 0.0205938
2244 0.00625216
2256 0.0135894
2268 0.0126871
2280 0.0173277
2292 0.00494485
2304 0.000923269
2316 0.000449774
2328 0.0120586
2340 0.00390513
2352 0.00602921
2364 0.0121842
2376 0.0417154
2388 0.0189353
2400 0.0125203
2412 0.0110862
2424 0.014266
2436 0.0112399
2448 0.0100792
2460 0.019194
2472 0.0273633
2484 0.0108624
2496 0.0040904
2508 0.0137797
2520 0.0291702
2532 0.00606457
2544 0.00819818
2556 0.00486055
2568 0.0125354
2580 0.00993112
2592 0.0130685
2604 0.00220156
2616 0.00266659
2628 0.0084083
2640 0.0152463
2652 0.020392
2664 0.0037907
2676 0.00178046
2688 0.0010198
2700 0.00468843
2712 0.00680656
2724 0.015144
2736 0.0225754
2748 0.00869549
2760 0.00836223
2772 0.00937894
2784 0.0153578
2796 0.00362966
2808 0.00630474
2820 0.01072
2832 0.000593121
2844 0.00281229
2856 0.00556816
2868 0.00948011
2880 0.00552096
2892 0.0122891
2904 0.0242916
2916 0.0070208
2928 0.00625568
2940 0.00527821
2952 0.00420124
2964 0.00793585
2976 0.00771957
2988 0.00242987
3000 0.00255195
3012 0.0032728
3024 0.00789606
3036 0.00920306
3048 0.00463802
3060 0.0106148
3072 0.00853473
3084 0.00864578
3096 0.0140816
3108 0.00957098
3120 0.0130275
3132 0.0127777
3144 0.00568501
3156 0.00631476
3168 0.0111918
3180 0.00868757
3192 0.0145598
3204 0.0172204
3216 0.00554941
3228 0.00768267
3240 0.00280043
3252 0.00456127
3264 0.00640855
3276 0.00424826
3288 0.00230763
3300 0.00236821
3312 0.00531529
3324 0.00544035
3336 0.00460838
3348 0.00917399
3360 0.00491028
3372 0.00403919
3384 0.00636357
3396 0.00529622
3408 0.00633438
3420 0.00605945
3432 0.00994241
3444 0.0138581
3456 0.0238417
3468 0.0180701
3480 0.0224936
3487 7.702e-05