File: constrainednmf/example_data/BaTiO3_xrd_ramp/BTO_270K_tth.xy
0.000000000000000000e+00 0.00027742
12 0.0103957
24 0.0111385
36 0.00276531
48 0.00297708
60 0.00309564
72 0.00326238
84 0.00363819
96 0.00348157
108 0.00341721
120 0.00330639
132 0.00321167
144 0.00309258
156 0.00292095
168 0.00284385
180 0.00267229
192 0.0025819
204 0.00236638
216 0.00231391
228 0.00223246
240 0.00221643
252 0.00230551
264 0.00226372
276 0.00240591
288 0.00270496
300 0.00237767
312 0.00217636
324 0.00303178
336 0.0648224
348 0.00170476
360 0.00441006
372 0.000944507
384 0.000913792
396 0.000875806
408 0.001079
420 0.00126974
432 0.00133695
444 0.00222148
456 0.00486641
468 0.0789296
480 0.0232364
492 0.00333418
504 0.00173771
516 0.00182451
528 0.000226024
540 0.00032774
552 0.000489676
564 0.00160488
576 0.0572822
588 0.00504777
600 0.00105303
612 0.00066579
624 0.00194144
636 0.00164738
648 0.00216651
660 0.016179
672 0.249904
684 0.00443215
696 0.00209572
708 0.000827302
720 0.000768213
732 0.00134003
744 0.0348972
756 0.00765289
768 0.000953119
780 0.00113499
792 0.00183791
804 0.00508929
816 0.149476
828 0.0230862
840 0.00302734
852 0.00125342
864 0.000775212
876 0.00035111
888 0.000653978
900 0.000340834
912 0.000579664
924 0.00131241
936 0.00676271
948 0.335669
960 0.00488795
972 0.00149005
984 0.00149406
996 0.00508864
1008 0.053447
1020 0.00152837
1032 0.00144892
1044 0.00502718
1056 0.16032
1068 0.027471
1080 0.00258951
1092 0.00202186
1104 0.0207901
1116 0.0740294
1128 0.00150326
1140 0.000945264
1152 0.00409074
1164 0.0633455
1176 0.00132918
1188 0.000756358
1200 0.00573254
1212 0.0322804
1224 0.00222988
1236 0.00450948
1248 0.0758588
1260 0.0847564
1272 0.00344517
1284 0.00116536
1296 0.00035201
1308 0.00055085
1320 0.00103917
1332 0.00901723
1344 0.0198192
1356 0.00203785
1368 0.00250145
1380 0.0482514
1392 0.00734397
1404 0.00324514
1416 0.0525119
1428 0.0870112
1440 0.00374609
1452 0.00518214
1464 0.058479
1476 0.00297986
1488 0.00982667
1500 0.0902385
1512 0.00826932
1524 0.0036675
1536 0.0351644
1548 0.00393783
1560 0.00215608
1572 0.0807689
1584 0.00372049
1596 0.00105766
1608 0.000686494
1620 0.00138732
1632 0.00620229
1644 0.0827385
1656 0.00517606
1668 0.00597937
1680 0.0182366
1692 0.00550692
1704 0.0604117
1716 0.0965643
1728 0.00714019
1740 0.0263205
1752 0.017679
1764 0.00116738
1776 0.000529546
1788 0.000855228
1800 0.0112655
1812 0.025695
1824 0.00650864
1836 0.0582852
1848 0.028064
1860 0.00145379
1872 0.0002587
1884 0.00102533
1896 0.0153971
1908 0.00593611
1920 0.00584331
1932 0.0169071
1944 0.00472332
1956 0.0562516
1968 0.0115537
1980 0.0171912
1992 0.0266979
2004 0.00761186
2016 0.0563128
2028 0.00730073
2040 0.00652122
2052 0.00854195
2064 0.0370635
2076 0.0501614
2088 0.00371921
2100 0.00170439
2112 0.00561368
2124 0.0192069
2136 0.0166536
2148 0.019198
2160 0.0129346
2172 0.0197855
2184 0.0270258
2196 0.00523251
2208 0.0114308
2220 0.00916353
2232 0.0144274
2244 0.00625171
2256 0.0150806
2268 0.0082903
2280 0.0219698
2292 0.00741711
2304 0.000330301
2316 0.000541026
2328 0.00905304
2340 0.00260329
2352 0.00841952
2364 0.0094986
2376 0.0407741
2388 0.0170143
2400 0.0126192
2412 0.010273
2424 0.0158725
2436 0.00931893
2448 0.010371
2460 0.0149368
2472 0.0355369
2484 0.016454
2496 0.00291396
2508 0.00915521
2520 0.0276568
2532 0.00595497
2544 0.00616968
2556 0.00708757
2568 0.00642852
2580 0.0116044
2592 0.00881638
2604 0.00083095
2616 0.00174557
2628 0.00869544
2640 0.013336
2652 0.0248087
2664 0.00553713
2676 0.000829045
2688 0.00139468
2700 0.00198449
2712 0.00761492
2724 0.0120445
2736 0.0232649
2748 0.0118058
2760 0.00466656
2772 0.0120578
2784 0.0114619
2796 0.00597909
2808 0.00699111
2820 0.0141832
2832 0.000307067
2844 0.00159962
2856 0.00718853
2868 0.00808163
2880 0.00481276
2892 0.0171069
2904 0.0189276
2916 0.00801457
2928 0.00587197
2940 0.00843666
2952 0.00503466
2964 0.00463547
2976 0.00739875
2988 0.00151821
3000 7.2079e-05
3012 0.00441549
3024 0.00723706
3036 0.00640706
3048 0.00709628
3060 0.00568964
3072 0.0075831
3084 0.0089917
3096 0.00842676
3108 0.00539567
3120 0.0099194
3132 0.0137333
3144 0.00485619
3156 0.00399076
3168 0.00837584
3180 0.00686324
3192 0.011943
3204 0.0157759
3216 0.00601342
3228 0.00191323
3240 1.89403e-05
3252 0.00267829
3264 0.00640303
3276 0.00975639
3288 0.00259735
3300 0.000974819
3312 0.00309514
3324 0.00333267
3336 0.00857893
3348 0.00869385
3360 0.00473421
3372 0.00369327
3384 0.00598473
3396 0.00551937
3408 0.00374043
3420 0.00022955
3432 0.00583007
3444 0.00676946
3456 0.00634692
3468 0.00628267
3480 0.00560826
3487 0.00368438