File: constrainednmf/example_data/BaTiO3_xrd_ramp/BTO_280K_tth.xy
0.000000000000000000e+00 0.00112775
12 0.0109684
24 0.0114237
36 0.00258635
48 0.00259697
60 0.00275753
72 0.00294565
84 0.00334488
96 0.00334783
108 0.00335967
120 0.00339986
132 0.00347326
144 0.00345125
156 0.00343096
168 0.00344962
180 0.00337649
192 0.00336215
204 0.00325808
216 0.00325591
228 0.00324783
240 0.00319637
252 0.00320938
264 0.00328132
276 0.00349106
288 0.00364742
300 0.00333628
312 0.00309687
324 0.00403551
336 0.0664817
348 0.002507
360 0.00517238
372 0.00168558
384 0.00156543
396 0.00158127
408 0.00161984
420 0.00174531
432 0.00198877
444 0.00267406
456 0.00521997
468 0.0812289
480 0.0235551
492 0.00377391
504 0.00208444
516 0.00214689
528 0.0007387
540 0.000649577
552 0.000835169
564 0.00203923
576 0.0593024
588 0.0051951
600 0.00144414
612 0.00111379
624 0.00266777
636 0.00198182
648 0.00278019
660 0.0175692
672 0.271082
684 0.00496564
696 0.00266
708 0.00143052
720 0.00136649
732 0.0021801
744 0.0381121
756 0.00806004
768 0.00166329
780 0.00175971
792 0.00249918
804 0.00584677
816 0.158744
828 0.0230027
840 0.00353246
852 0.00190424
864 0.0014214
876 0.00101013
888 0.00124763
900 0.000915704
912 0.00102213
924 0.00176944
936 0.0071157
948 0.326137
960 0.00492257
972 0.00190813
984 0.00157815
996 0.00556667
1008 0.0538295
1020 0.00180591
1032 0.00168946
1044 0.0054876
1056 0.152604
1068 0.0254719
1080 0.00268453
1092 0.00222972
1104 0.0236505
1116 0.0726371
1128 0.00134655
1140 0.00101273
1152 0.0043907
1164 0.0587555
1176 0.00143231
1188 0.000819066
1200 0.0058715
1212 0.0313553
1224 0.00218675
1236 0.004563
1248 0.0795081
1260 0.0806535
1272 0.00360894
1284 0.00139939
1296 0.000668395
1308 0.000706335
1320 0.00117751
1332 0.0111998
1344 0.0239063
1356 0.00268719
1368 0.00297372
1380 0.0463882
1392 0.00719542
1404 0.00406423
1416 0.055467
1428 0.0921289
1440 0.0046369
1452 0.00612729
1464 0.0549778
1476 0.00384879
1488 0.0114747
1500 0.0883457
1512 0.00880025
1524 0.00478771
1536 0.0339386
1548 0.00466518
1560 0.00368652
1572 0.0863531
1584 0.00449805
1596 0.00177652
1608 0.00218427
1620 0.00239563
1632 0.00745678
1644 0.08295
1656 0.00613592
1668 0.00679657
1680 0.0189061
1692 0.00641387
1704 0.0610259
1716 0.100558
1728 0.00809205
1740 0.0246546
1752 0.0174029
1764 0.00177174
1776 0.00115081
1788 0.00135952
1800 0.0122185
1812 0.0267474
1824 0.00746337
1836 0.052234
1848 0.0245372
1860 0.00176409
1872 0.000820372
1884 0.00108008
1896 0.0175136
1908 0.0059494
1920 0.0059794
1932 0.016635
1944 0.00459566
1956 0.055135
1968 0.0103826
1980 0.0171032
1992 0.0265919
2004 0.00732971
2016 0.0547658
2028 0.00615137
2040 0.00545306
2052 0.00784146
2064 0.0362405
2076 0.0522973
2088 0.00296374
2100 0.0013014
2112 0.00652489
2124 0.0171762
2136 0.0141821
2148 0.0179869
2160 0.0126337
2172 0.0213873
2184 0.0256115
2196 0.00493591
2208 0.0113086
2220 0.00955909
2232 0.0146795
2244 0.00605509
2256 0.0148442
2268 0.00868382
2280 0.0206874
2292 0.0064649
2304 0.000869598
2316 0.000479388
2328 0.00988044
2340 0.0027517
2352 0.00809924
2364 0.010378
2376 0.0422375
2388 0.0185466
2400 0.0134837
2412 0.01131
2424 0.0155304
2436 0.0101906
2448 0.0107228
2460 0.0164212
2472 0.0352763
2484 0.0154538
2496 0.00389958
2508 0.0110146
2520 0.0282915
2532 0.00651873
2544 0.0074973
2556 0.00727236
2568 0.00755797
2580 0.0120992
2592 0.0102182
2604 0.00234078
2616 0.00234876
2628 0.00887237
2640 0.0134774
2652 0.0252056
2664 0.00463579
2676 0.00138667
2688 0.00189083
2700 0.00306479
2712 0.00799823
2724 0.0126067
2736 0.022941
2748 0.0109022
2760 0.00498973
2772 0.0118219
2784 0.012319
2796 0.0058616
2808 0.00707058
2820 0.0139827
2832 0.00123584
2844 0.00195542
2856 0.00744313
2868 0.00821715
2880 0.00502707
2892 0.017157
2904 0.0199032
2916 0.00753767
2928 0.00566637
2940 0.00821612
2952 0.00574776
2964 0.00578987
2976 0.0083109
2988 0.00442905
3000 0.00181766
3012 0.00404038
3024 0.00860246
3036 0.00734425
3048 0.00771087
3060 0.00889056
3072 0.0100278
3084 0.0110736
3096 0.0103766
3108 0.0079541
3120 0.0131894
3132 0.0153489
3144 0.00684615
3156 0.00501174
3168 0.0101357
3180 0.00837157
3192 0.0144943
3204 0.0156061
3216 0.0066266
3228 0.00381747
3240 0.000875765
3252 0.00336914
3264 0.00820425
3276 0.0069402
3288 0.00193424
3300 0.00214753
3312 0.00309148
3324 0.00324018
3336 0.00748118
3348 0.00816105
3360 0.00358248
3372 0.00492082
3384 0.0062714
3396 0.00601192
3408 0.00619488
3420 0.00280941
3432 0.00812267
3444 0.0138187
3456 0.0181895
3468 0.0174298
3480 0.018834
3487 0.000251312