File: constrainednmf/example_data/BaTiO3_xrd_ramp/BTO_195K_tth.xy
0.000000000000000000e+00 9.09394e-05
12 0.0102327
24 0.0112913
36 0.00306864
48 0.00324372
60 0.00342011
72 0.00353905
84 0.00381512
96 0.00366556
108 0.00352714
120 0.00333223
132 0.00322109
144 0.00306359
156 0.0028735
168 0.00262035
180 0.00245681
192 0.00227484
204 0.00211928
216 0.00197611
228 0.00186859
240 0.00183507
252 0.00183768
264 0.00183588
276 0.00192537
288 0.00219472
300 0.00205017
312 0.0018884
324 0.00275612
336 0.0674042
348 0.00179195
360 0.00416475
372 0.000991241
384 0.00152023
396 0.00100536
408 0.000960688
420 0.00137188
432 0.0012783
444 0.00200747
456 0.00448725
468 0.0655769
480 0.0265528
492 0.00341279
504 0.00167517
516 0.00188191
528 0.000417408
540 0.000148664
552 0.000564405
564 0.00145575
576 0.0472708
588 0.0055081
600 0.00120122
612 0.000624301
624 0.00194385
636 0.00169606
648 0.00749502
660 0.0134056
672 0.23821
684 0.00476201
696 0.00325901
708 0.0009038
720 0.000429497
732 0.000738544
744 0.0241834
756 0.00933537
768 0.000515481
780 0.000828253
792 0.00102341
804 0.00410628
816 0.107872
828 0.0289118
840 0.00260583
852 0.000734593
864 0.000507272
876 0.000644781
888 0.000662806
900 0.00010201
912 0.000340827
924 0.000945389
936 0.00591702
948 0.34392
960 0.00545215
972 0.00170341
984 0.00193268
996 0.00436635
1008 0.0713552
1020 0.00163623
1032 0.00136004
1044 0.00452188
1056 0.127998
1068 0.0405272
1080 0.00299
1092 0.00291262
1104 0.0143579
1116 0.0696691
1128 0.00172511
1140 0.000971457
1152 0.00412847
1164 0.102288
1176 0.00128301
1188 0.000707044
1200 0.00441361
1212 0.0347181
1224 0.00198348
1236 0.0038923
1248 0.0540312
1260 0.117994
1272 0.00393844
1284 0.000965
1296 0.000373536
1308 0.000495756
1320 0.000626851
1332 0.00541291
1344 0.0269001
1356 0.00283762
1368 0.00215725
1380 0.046062
1392 0.0102199
1404 0.00308366
1416 0.0352428
1428 0.0793127
1440 0.00423437
1452 0.00471435
1464 0.0689109
1476 0.00279037
1488 0.00761317
1500 0.121882
1512 0.0112933
1524 0.00332831
1536 0.0414599
1548 0.00549432
1560 0.00226754
1572 0.0618241
1584 0.00493751
1596 0.00117416
1608 0.00045679
1620 0.00140785
1632 0.00441271
1644 0.0953556
1656 0.00690552
1668 0.00433115
1680 0.0214213
1692 0.00471983
1704 0.0426474
1716 0.115312
1728 0.00779226
1740 0.025659
1752 0.0131281
1764 0.00104566
1776 3.9934e-05
1788 0.000656288
1800 0.00833951
1812 0.0327512
1824 0.00534158
1836 0.0627321
1848 0.0330115
1860 0.00175195
1872 0.000462171
1884 0.000991064
1896 0.0137
1908 0.00796023
1920 0.00488389
1932 0.021137
1944 0.00481404
1956 0.0510649
1968 0.016657
1980 0.0142747
1992 0.0272876
2004 0.00694789
2016 0.0563575
2028 0.00813684
2040 0.00831377
2052 0.00599153
2064 0.029087
2076 0.057314
2088 0.00618151
2100 0.002315
2112 0.00398506
2124 0.0277449
2136 0.0156138
2148 0.020709
2160 0.0119422
2172 0.0175095
2184 0.0363704
2196 0.00512969
2208 0.0138539
2220 0.00628597
2232 0.0223115
2244 0.00795532
2256 0.0181217
2268 0.00680551
2280 0.0314135
2292 0.0118865
2304 0.000361695
2316 0.000291204
2328 0.00624904
2340 0.00245114
2352 0.00951075
2364 0.00860673
2376 0.0400316
2388 0.0164286
2400 0.0145266
2412 0.00738639
2424 0.0166283
2436 0.0106702
2448 0.0123676
2460 0.0111187
2472 0.0437839
2484 0.015696
2496 0.002679
2508 0.00674623
2520 0.0343538
2532 0.00673185
2544 0.00791589
2556 0.00598665
2568 0.00709925
2580 0.0122273
2592 0.0101016
2604 0.0010316
2616 0.00122018
2628 0.00815728
2640 0.0101442
2652 0.0338652
2664 0.00857069
2676 0.00036333
2688 0.00161145
2700 0.00192276
2712 0.00906407
2724 0.0104466
2736 0.0285147
2748 0.0122204
2760 0.00596993
2772 0.0127487
2784 0.016277
2796 0.0115164
2808 0.00687431
2820 0.0158545
2832 0.00105467
2844 0.00123547
2856 0.00931821
2868 0.00779724
2880 0.00585116
2892 0.0166094
2904 0.0253252
2916 0.0119831
2928 0.00695841
2940 0.00892848
2952 0.00737836
2964 0.00744665
2976 0.00908894
2988 0.00506884
3000 0.000785533
3012 0.0046563
3024 0.00649817
3036 0.00822937
3048 0.0080732
3060 0.00743382
3072 0.0103658
3084 0.00775454
3096 0.0102517
3108 0.0072338
3120 0.00947009
3132 0.0207341
3144 0.0043991
3156 0.00161329
3168 0.00930103
3180 0.00758565
3192 0.0112482
3204 0.0192569
3216 0.00854067
3228 0.00218725
3240 0.000939064
3252 0.0031505
3264 0.00622069
3276 0.0120843
3288 0.00282243
3300 0.000915822
3312 0.00485542
3324 0.00283579
3336 0.00755859
3348 0.0117322
3360 0.0087605
3372 0.00451446
3384 0.00715538
3396 0.00845657
3408 0.00864952
3420 0.00247616
3432 0.00296377
3444 0.00966185
3456 0.00720759
3468 0.00462896
3480 0.00111739
3487 0.0228535