File: constrainednmf/example_data/BaTiO3_xrd_ramp/BTO_435K_tth.xy
0.000000000000000000e+00 0.000137872
12 0.0120915
24 0.0128686
36 0.00317822
48 0.00333197
60 0.00336268
72 0.00345144
84 0.00375897
96 0.00357768
108 0.0034348
120 0.00329973
132 0.0031506
144 0.00296798
156 0.00278047
168 0.00262768
180 0.00240364
192 0.00221592
204 0.00210278
216 0.0020637
228 0.00200888
240 0.00195393
252 0.00204749
264 0.00214439
276 0.00231494
288 0.00246966
300 0.00213604
312 0.00196901
324 0.00266428
336 0.049792
348 0.00139223
360 0.00396093
372 0.000792649
384 0.000739362
396 0.000693004
408 0.000830782
420 0.00108128
432 0.00130046
444 0.0020936
456 0.00484765
468 0.0826105
480 0.0193532
492 0.0032045
504 0.00182584
516 0.00154378
528 0.000453607
540 0.000331382
552 0.000429516
564 0.00166811
576 0.0713587
588 0.00438044
600 0.00109265
612 0.000611247
624 0.00183226
636 0.00147655
648 0.00246565
660 0.0172501
672 0.199293
684 0.00426758
696 0.00171438
708 0.000828252
720 0.00083531
732 0.00146847
744 0.0321302
756 0.00495526
768 0.000962944
780 0.000948939
792 0.00172372
804 0.00568339
816 0.152292
828 0.016563
840 0.00313226
852 0.00132327
864 0.00089786
876 0.000769902
888 0.000609185
900 0.000449885
912 0.000370298
924 0.00126577
936 0.00730853
948 0.319027
960 0.0044199
972 0.00165894
984 0.000997977
996 0.00552992
1008 0.0318211
1020 0.00159344
1032 0.00172339
1044 0.00602974
1056 0.12715
1068 0.0132975
1080 0.00240536
1092 0.00213227
1104 0.0199224
1116 0.0255391
1128 0.00147503
1140 0.00113634
1152 0.00504101
1164 0.0272623
1176 0.00122551
1188 0.00110604
1200 0.00542599
1212 0.0158288
1224 0.00235637
1236 0.00512987
1248 0.068262
1260 0.0328702
1272 0.00323013
1284 0.000758269
1296 0.000401581
1308 0.000497524
1320 0.000695354
1332 0.00793331
1344 0.0312788
1356 0.00118178
1368 0.00229904
1380 0.0508329
1392 0.00329412
1404 0.00340948
1416 0.0417979
1428 0.0303851
1440 0.00277977
1452 0.00456722
1464 0.0336161
1476 0.00245105
1488 0.00921363
1500 0.144793
1512 0.0049032
1524 0.00331158
1536 0.0469302
1548 0.00230366
1560 0.00248329
1572 0.106639
1584 0.00246955
1596 0.000285518
1608 0.000320921
1620 0.00109399
1632 0.00628711
1644 0.116813
1656 0.00345601
1668 0.00427729
1680 0.0156551
1692 0.00518879
1704 0.0446654
1716 0.0449354
1728 0.00570855
1740 0.020737
1752 0.00396557
1764 0.000531511
1776 0.000353823
1788 0.000715075
1800 0.00900021
1812 0.011252
1824 0.00618152
1836 0.0523804
1848 0.00669348
1860 0.00130499
1872 0.000437652
1884 0.00117856
1896 0.0246497
1908 0.00299589
1920 0.004202
1932 0.0119749
1944 0.00475204
1956 0.0707078
1968 0.00576535
1980 0.0140785
1992 0.0105346
2004 0.0073525
2016 0.0529062
2028 0.00382367
2040 0.00567837
2052 0.00506295
2064 0.0267105
2076 0.0223808
2088 0.00307997
2100 0.00223899
2112 0.00543294
2124 0.0280592
2136 0.0048087
2148 0.0191202
2160 0.00494478
2172 0.0211756
2184 0.00911604
2196 0.00427012
2208 0.00478496
2220 0.00718313
2232 0.0224792
2244 0.00383844
2256 0.0154239
2268 0.00572341
2280 0.0337296
2292 0.00185085
2304 0.000284437
2316 0.000345425
2328 0.0122423
2340 0.00262684
2352 0.00921149
2364 0.00634028
2376 0.050947
2388 0.0067299
2400 0.0148122
2412 0.0045873
2424 0.0197656
2436 0.00434495
2448 0.0122764
2460 0.00880387
2472 0.0452385
2484 0.00399354
2496 0.0025649
2508 0.00698003
2520 0.024037
2532 0.0031495
2544 0.00434944
2556 0.00418613
2568 0.0055296
2580 0.00869542
2592 0.00346417
2604 0.000434734
2616 0.00130431
2628 0.00999029
2640 0.00811604
2652 0.0266666
2664 0.00194461
2676 0.000600945
2688 0.000935969
2700 0.00284777
2712 0.00805437
2724 0.00702911
2736 0.02656
2748 0.00353272
2760 0.00505231
2772 0.0101032
2784 0.00695146
2796 0.00737647
2808 0.00406128
2820 0.00938649
2832 0.00151748
2844 0.00252618
2856 0.00889608
2868 0.00367338
2880 0.00488452
2892 0.011407
2904 0.00998527
2916 0.0105332
2928 0.00358876
2940 0.00610971
2952 0.00442084
2964 0.00262199
2976 0.0101795
2988 0.000000000000000000e+00
3000 0.00197101
3012 0.00363841
3024 0.00353003
3036 0.00656144
3048 0.0054175
3060 0.00582387
3072 0.00892718
3084 0.00584321
3096 0.0065243
3108 0.00589866
3120 0.00845768
3132 0.00964713
3144 0.00237041
3156 0.00391734
3168 0.00368225
3180 0.00616492
3192 0.00926137
3204 0.0105164
3216 0.0047095
3228 0.00332315
3240 0.00114536
3252 0.00394554
3264 0.00490662
3276 0.00566251
3288 0.00165786
3300 0.00300143
3312 0.00271437
3324 0.00379953
3336 0.00602247
3348 0.00599988
3360 0.0076497
3372 0.00509545
3384 0.00448792
3396 0.00820372
3408 0.0059748
3420 0.00313212
3432 0.00500882
3444 0.0105599
3456 0.00562935
3468 0.00294077
3480 0.0156131
3487 0.00243419