File: constrainednmf/example_data/BaTiO3_xrd_ramp/BTO_345K_tth.xy
0.000000000000000000e+00 0.000284964
12 0.0123691
24 0.0131425
36 0.00287175
48 0.00287046
60 0.0030377
72 0.00314208
84 0.00353846
96 0.00344737
108 0.00332935
120 0.00327908
132 0.00318431
144 0.00310089
156 0.00288637
168 0.002853
180 0.00271851
192 0.00258907
204 0.0024366
216 0.00235861
228 0.00231321
240 0.00230381
252 0.00248598
264 0.00243682
276 0.0026272
288 0.00281793
300 0.0024336
312 0.00220285
324 0.00316327
336 0.0684439
348 0.00157776
360 0.00443126
372 0.000872615
384 0.00079619
396 0.000758576
408 0.000845883
420 0.00116035
432 0.00120414
444 0.00224943
456 0.00481732
468 0.0867401
480 0.0235173
492 0.00345443
504 0.00180963
516 0.00166264
528 0.0001879
540 0.000216404
552 0.000383445
564 0.00163942
576 0.0651603
588 0.00485631
600 0.0010238
612 0.000495255
624 0.00199068
636 0.0017095
648 0.0023423
660 0.0202217
672 0.340676
684 0.00458014
696 0.00186178
708 0.000929534
720 0.000798829
732 0.00150482
744 0.0479068
756 0.00701519
768 0.00101043
780 0.00131741
792 0.00200233
804 0.00572364
816 0.192322
828 0.0214174
840 0.00332906
852 0.00131995
864 0.000839898
876 0.000601671
888 0.00055081
900 0.000397256
912 0.000581027
924 0.00121272
936 0.0074085
948 0.275958
960 0.00481268
972 0.00171465
984 0.00152869
996 0.0069606
1008 0.0560956
1020 0.00149346
1032 0.00120756
1044 0.00605988
1056 0.113779
1068 0.0203226
1080 0.00296558
1092 0.00216114
1104 0.035172
1116 0.0615026
1128 0.00162336
1140 0.000774781
1152 0.00486352
1164 0.0434701
1176 0.00123994
1188 0.000866602
1200 0.00610552
1212 0.030957
1224 0.00253211
1236 0.00509468
1248 0.096288
1260 0.0677372
1272 0.00356454
1284 0.000978955
1296 9.54441e-06
1308 0.000519046
1320 0.000777073
1332 0.0189299
1344 0.0460362
1356 0.00175606
1368 0.00311507
1380 0.0382494
1392 0.00481342
1404 0.00359954
1416 0.0627968
1428 0.089045
1440 0.0038336
1452 0.0051801
1464 0.0421565
1476 0.00319152
1488 0.013045
1500 0.0896019
1512 0.00712088
1524 0.00434533
1536 0.0247739
1548 0.00332945
1560 0.00306589
1572 0.103096
1584 0.00339781
1596 0.00108882
1608 0.0013637
1620 0.00179868
1632 0.00780473
1644 0.0884754
1656 0.00511609
1668 0.00656175
1680 0.0161573
1692 0.00674062
1704 0.0599191
1716 0.120789
1728 0.00770605
1740 0.0150957
1752 0.0102779
1764 0.00115669
1776 0.000523216
1788 0.00145184
1800 0.0130304
1812 0.0278258
1824 0.00864712
1836 0.0267949
1848 0.0140118
1860 0.00154948
1872 0.000396377
1884 0.00144557
1896 0.0287435
1908 0.00639705
1920 0.00702962
1932 0.0181623
1944 0.00517693
1956 0.0536281
1968 0.00907702
1980 0.0216359
1992 0.026275
2004 0.00879206
2016 0.0420665
2028 0.00581657
2040 0.00332078
2052 0.00697333
2064 0.0365096
2076 0.0618962
2088 0.00333081
2100 0.00147449
2112 0.0117151
2124 0.0105129
2136 0.00902215
2148 0.0158881
2160 0.00987927
2172 0.0287954
2184 0.0256029
2196 0.00564344
2208 0.0107013
2220 0.0126881
2232 0.0233021
2244 0.00612518
2256 0.012891
2268 0.0122325
2280 0.0182683
2292 0.00367933
2304 0.000526956
2316 0.000567244
2328 0.011837
2340 0.00316473
2352 0.00524669
2364 0.0106868
2376 0.0410016
2388 0.0155559
2400 0.0109033
2412 0.00834945
2424 0.0140513
2436 0.00877601
2448 0.00903231
2460 0.0170133
2472 0.0260999
2484 0.00792581
2496 0.00344506
2508 0.0121871
2520 0.0279148
2532 0.0048922
2544 0.00703813
2556 0.00432278
2568 0.0113655
2580 0.00820044
2592 0.0110619
2604 0.00068731
2616 0.0012118
2628 0.00791016
2640 0.0145579
2652 0.0199605
2664 0.00394686
2676 0.0014389
2688 0.000887479
2700 0.00485034
2712 0.00700977
2724 0.0134979
2736 0.0222489
2748 0.00718615
2760 0.00922398
2772 0.00926519
2784 0.0159667
2796 0.00437348
2808 0.00652148
2820 0.0104832
2832 0.00106117
2844 0.00371138
2856 0.00478308
2868 0.00911961
2880 0.00565052
2892 0.0115516
2904 0.02354
2916 0.00796367
2928 0.00506942
2940 0.00429501
2952 0.00381319
2964 0.00585635
2976 0.00645911
2988 0.00177838
3000 0.00137102
3012 0.00160832
3024 0.00607384
3036 0.00656704
3048 0.00465221
3060 0.00979081
3072 0.00650309
3084 0.0047997
3096 0.011997
3108 0.00609346
3120 0.00898615
3132 0.0104736
3144 0.00274182
3156 0.00409184
3168 0.00773003
3180 0.00816621
3192 0.0119056
3204 0.0153733
3216 0.00404693
3228 0.00492822
3240 0.00210967
3252 0.00469187
3264 0.0068448
3276 0.00762884
3288 0.00203363
3300 0.00251932
3312 0.00568218
3324 0.00364703
3336 0.00520536
3348 0.0100184
3360 0.00548166
3372 0.00395519
3384 0.0036121
3396 0.00535111
3408 0.00407589
3420 0.00728709
3432 0.00422865
3444 0.00600558
3456 0.00618248
3468 0.0109663
3480 0.0167741
3487 6.11837e-05