File: constrainednmf/example_data/BaTiO3_xrd_ramp/BTO_285K_tth.xy
0.000000000000000000e+00 9.81062e-05
12 0.0107535
24 0.011618
36 0.00290128
48 0.00313523
60 0.00327005
72 0.00340456
84 0.003743
96 0.00360525
108 0.0034863
120 0.00334928
132 0.00324137
144 0.00311216
156 0.00291356
168 0.00274569
180 0.00255083
192 0.00229917
204 0.00211583
216 0.00211105
228 0.00205399
240 0.00193921
252 0.00200779
264 0.00209317
276 0.00229442
288 0.00248371
300 0.00216066
312 0.00199299
324 0.00287686
336 0.0670474
348 0.00144421
360 0.00432174
372 0.000765773
384 0.000766686
396 0.000814085
408 0.000909126
420 0.0011703
432 0.00134411
444 0.00216572
456 0.00465771
468 0.0813627
480 0.0233513
492 0.00330853
504 0.00178125
516 0.00171668
528 0.000288381
540 0.000203977
552 0.000391402
564 0.00166686
576 0.0598644
588 0.00463722
600 0.000892717
612 0.000511692
624 0.00190048
636 0.0015265
648 0.0021205
660 0.0173152
672 0.289446
684 0.00431365
696 0.00171352
708 0.000499401
720 0.000427218
732 0.00115819
744 0.0400997
756 0.0070176
768 0.000557361
780 0.00065185
792 0.00161033
804 0.00506695
816 0.166836
828 0.022188
840 0.00279505
852 0.000928838
864 0.000689665
876 0.000136242
888 0.000400109
900 0.000283681
912 0.000220304
924 0.00092091
936 0.00653101
948 0.316708
960 0.00486791
972 0.00145907
984 0.00128054
996 0.00560133
1008 0.0549546
1020 0.0014658
1032 0.00140628
1044 0.00516537
1056 0.143701
1068 0.0248056
1080 0.00293866
1092 0.0023461
1104 0.0266985
1116 0.0740487
1128 0.00153372
1140 0.00100154
1152 0.00472639
1164 0.0571565
1176 0.00144384
1188 0.0008402
1200 0.00589318
1212 0.0316953
1224 0.00206872
1236 0.00458122
1248 0.0836677
1260 0.0813533
1272 0.00350529
1284 0.00105386
1296 0.000366039
1308 0.000751765
1320 0.000853908
1332 0.0127123
1344 0.026591
1356 0.00215077
1368 0.00243039
1380 0.044519
1392 0.00617445
1404 0.00332663
1416 0.0559558
1428 0.0964704
1440 0.00365442
1452 0.00532686
1464 0.0507271
1476 0.00266905
1488 0.0110501
1500 0.0852062
1512 0.00748418
1524 0.00357426
1536 0.030636
1548 0.00317676
1560 0.00200075
1572 0.0886664
1584 0.00335088
1596 0.000498913
1608 0.00058638
1620 0.00102509
1632 0.00616918
1644 0.0803184
1656 0.00481508
1668 0.00567947
1680 0.0171483
1692 0.00578617
1704 0.0598588
1716 0.104433
1728 0.00733019
1740 0.0217275
1752 0.0157427
1764 0.000841459
1776 0.00025193
1788 0.000407133
1800 0.0115833
1812 0.0270317
1824 0.00712788
1836 0.0467569
1848 0.0227273
1860 0.00131639
1872 0.000239403
1884 0.000866426
1896 0.0196612
1908 0.00648832
1920 0.00645591
1932 0.0165845
1944 0.00539477
1956 0.0544883
1968 0.011289
1980 0.0187442
1992 0.0271328
2004 0.00841125
2016 0.0537195
2028 0.00688873
2040 0.00592295
2052 0.00930833
2064 0.0370458
2076 0.0562265
2088 0.00354857
2100 0.00230608
2112 0.00863455
2124 0.0164269
2136 0.0142233
2148 0.0180778
2160 0.0136187
2172 0.0237213
2184 0.0260485
2196 0.0057167
2208 0.0120963
2220 0.0104393
2232 0.016059
2244 0.0062349
2256 0.0149888
2268 0.0101276
2280 0.0196982
2292 0.00612222
2304 0.00042008
2316 0.000584789
2328 0.0102478
2340 0.00269602
2352 0.00699719
2364 0.0102017
2376 0.0417368
2388 0.0190302
2400 0.0125477
2412 0.0106133
2424 0.0141183
2436 0.00958178
2448 0.00932609
2460 0.0157767
2472 0.0326923
2484 0.0130718
2496 0.0026409
2508 0.010505
2520 0.0273336
2532 0.00536713
2544 0.00611676
2556 0.00543244
2568 0.00781706
2580 0.0100124
2592 0.00987625
2604 0.000366191
2616 0.00186535
2628 0.00759847
2640 0.013438
2652 0.0234442
2664 0.00444687
2676 0.000381157
2688 0.00081486
2700 0.00307323
2712 0.00765766
2724 0.0129859
2736 0.0227109
2748 0.0108726
2760 0.00597644
2772 0.0113395
2784 0.0129848
2796 0.0058891
2808 0.00775469
2820 0.014118
2832 0.000750727
2844 0.00192301
2856 0.00692911
2868 0.0100595
2880 0.00658182
2892 0.016397
2904 0.0206454
2916 0.00867666
2928 0.00632562
2940 0.00759687
2952 0.0053775
2964 0.00672627
2976 0.00719342
2988 0.00316227
3000 0.00199733
3012 0.00420745
3024 0.0076979
3036 0.00678517
3048 0.00604546
3060 0.00867978
3072 0.00848926
3084 0.00904634
3096 0.0097477
3108 0.00550487
3120 0.0102733
3132 0.0127833
3144 0.00407188
3156 0.00305393
3168 0.00860636
3180 0.00411554
3192 0.011862
3204 0.0138197
3216 0.00455109
3228 0.00435608
3240 0.000523626
3252 0.00333272
3264 0.00603962
3276 0.00868715
3288 0.00137022
3300 0.00266106
3312 0.00203515
3324 0.00354885
3336 0.00709071
3348 0.00862023
3360 0.00602319
3372 0.00293867
3384 0.00525577
3396 0.00509163
3408 0.00316594
3420 0.000595423
3432 0.00366892
3444 0.00742325
3456 0.00843281
3468 0.00725974
3480 0.0104813
3487 0.0191706