File: constrainednmf/example_data/BaTiO3_xrd_ramp/BTO_365K_tth.xy
0.000000000000000000e+00 0.000887986
12 0.0128176
24 0.0135614
36 0.0032307
48 0.00327319
60 0.00338517
72 0.003563
84 0.00400035
96 0.00388448
108 0.00386754
120 0.00387197
132 0.00388722
144 0.00380166
156 0.00370446
168 0.00364522
180 0.00352545
192 0.00354051
204 0.00338754
216 0.00336097
228 0.00332831
240 0.00328798
252 0.00342367
264 0.0034319
276 0.00362096
288 0.00389563
300 0.00350139
312 0.00318157
324 0.004155
336 0.0663945
348 0.00254861
360 0.00544681
372 0.00159791
384 0.00165491
396 0.00164114
408 0.00166798
420 0.00187735
432 0.00202439
444 0.00296298
456 0.00549756
468 0.0876839
480 0.0234773
492 0.00413158
504 0.00242884
516 0.00241567
528 0.000975695
540 0.000947599
552 0.00116714
564 0.00228584
576 0.0676995
588 0.00526104
600 0.00176602
612 0.00124692
624 0.00274443
636 0.00212436
648 0.00306262
660 0.0205443
672 0.323125
684 0.00517926
696 0.00246607
708 0.00150118
720 0.00131042
732 0.0020905
744 0.0467486
756 0.00724509
768 0.00163333
780 0.0017563
792 0.0027547
804 0.00615041
816 0.190584
828 0.0209026
840 0.00351461
852 0.00182775
864 0.0013611
876 0.00111389
888 0.00127234
900 0.00100778
912 0.00121001
924 0.00180509
936 0.00799373
948 0.278309
960 0.00503003
972 0.00201443
984 0.00177948
996 0.00693867
1008 0.0528382
1020 0.00191653
1032 0.00213669
1044 0.00653515
1056 0.117025
1068 0.0191262
1080 0.00282412
1092 0.0027499
1104 0.0328446
1116 0.0525673
1128 0.00159001
1140 0.00111481
1152 0.0050906
1164 0.0390263
1176 0.00152183
1188 0.00135219
1200 0.00672363
1212 0.0296236
1224 0.00301493
1236 0.00552795
1248 0.0943146
1260 0.0583148
1272 0.00394514
1284 0.00148386
1296 0.000912788
1308 0.00101636
1320 0.00122057
1332 0.0180725
1344 0.0494011
1356 0.00251185
1368 0.00339853
1380 0.0397914
1392 0.00505301
1404 0.00451876
1416 0.0628999
1428 0.075227
1440 0.00426453
1452 0.00616389
1464 0.043399
1476 0.00395662
1488 0.013789
1500 0.0972147
1512 0.00722289
1524 0.00494819
1536 0.0273451
1548 0.00380383
1560 0.00355361
1572 0.10565
1584 0.00407233
1596 0.00179267
1608 0.00176411
1620 0.00243674
1632 0.00889397
1644 0.096506
1656 0.00604694
1668 0.00719617
1680 0.0178666
1692 0.00697682
1704 0.0601069
1716 0.110625
1728 0.00797472
1740 0.0156746
1752 0.00889821
1764 0.00143105
1776 0.00129928
1788 0.00166352
1800 0.0132597
1812 0.0251594
1824 0.00904139
1836 0.0273231
1848 0.0121767
1860 0.00151349
1872 0.000874005
1884 0.00142756
1896 0.0292289
1908 0.00503467
1920 0.00677936
1932 0.018386
1944 0.00530342
1956 0.055389
1968 0.00802118
1980 0.0207587
1992 0.0246384
2004 0.00911239
2016 0.0425413
2028 0.00527149
2040 0.00314844
2052 0.00657103
2064 0.0356483
2076 0.0558819
2088 0.00315566
2100 0.00158328
2112 0.0106323
2124 0.0111547
2136 0.00797342
2148 0.0156218
2160 0.00851563
2172 0.0287442
2184 0.0230196
2196 0.00539832
2208 0.00890934
2220 0.0129294
2232 0.0264054
2244 0.00599889
2256 0.0136024
2268 0.0111196
2280 0.0205536
2292 0.00377701
2304 0.000658858
2316 0.00127559
2328 0.0132821
2340 0.00394552
2352 0.00621637
2364 0.0112237
2376 0.0420326
2388 0.0142097
2400 0.0117293
2412 0.0086688
2424 0.0146745
2436 0.00930112
2448 0.0101674
2460 0.0174142
2472 0.0278074
2484 0.00786209
2496 0.00385079
2508 0.012975
2520 0.0294268
2532 0.00536896
2544 0.00801145
2556 0.00499376
2568 0.0115557
2580 0.00892521
2592 0.010117
2604 0.00226848
2616 0.00208963
2628 0.00890843
2640 0.0141173
2652 0.0209826
2664 0.00405572
2676 0.00160277
2688 0.000874257
2700 0.0049998
2712 0.00724708
2724 0.0123687
2736 0.0221444
2748 0.00629309
2760 0.0074101
2772 0.00925527
2784 0.0144184
2796 0.00382311
2808 0.00482888
2820 0.0101924
2832 0.000732383
2844 0.00240967
2856 0.00501241
2868 0.00690225
2880 0.00490553
2892 0.0109171
2904 0.0221382
2916 0.00709387
2928 0.00491489
2940 0.00447147
2952 0.00354236
2964 0.005822
2976 0.00635639
2988 0.00149731
3000 0.00274663
3012 0.00253047
3024 0.00610419
3036 0.00711661
3048 0.00299857
3060 0.00926507
3072 0.00836376
3084 0.00511122
3096 0.0123425
3108 0.00567449
3120 0.00972679
3132 0.0125671
3144 0.00275055
3156 0.00400605
3168 0.00718694
3180 0.00698075
3192 0.0109997
3204 0.0148849
3216 0.00372338
3228 0.00431102
3240 0.00127469
3252 0.00516434
3264 0.00532197
3276 0.00925329
3288 0.00121207
3300 0.000846945
3312 0.00200996
3324 0.00336313
3336 0.0042364
3348 0.00897539
3360 0.00574062
3372 0.00694064
3384 0.00571619
3396 0.00459935
3408 0.00732907
3420 0.00480399
3432 0.00878386
3444 0.0108486
3456 0.0132698
3468 0.00678296
3480 0.0230159
3487 0.00044288