File: constrainednmf/example_data/BaTiO3_xrd_ramp/BTO_230K_tth.xy
0.000000000000000000e+00 0.000500963
12 0.0102065
24 0.0116523
36 0.00343579
48 0.00366427
60 0.00374261
72 0.00389088
84 0.00420328
96 0.00407491
108 0.0038425
120 0.00374707
132 0.00355692
144 0.0034023
156 0.00314462
168 0.00302442
180 0.00285933
192 0.00269858
204 0.00246739
216 0.00235277
228 0.0023164
240 0.00226726
252 0.00226704
264 0.00229433
276 0.00240496
288 0.00279363
300 0.00244905
312 0.00221951
324 0.00310518
336 0.0658387
348 0.00185019
360 0.00451346
372 0.00107564
384 0.00109339
396 0.00117639
408 0.0012778
420 0.00153581
432 0.00159987
444 0.00241879
456 0.00488483
468 0.0770527
480 0.0241509
492 0.00365337
504 0.00208575
516 0.00223048
528 0.000609353
540 0.000675475
552 0.000829868
564 0.00193362
576 0.05466
588 0.00526196
600 0.00131558
612 0.000926142
624 0.00231334
636 0.00193804
648 0.00271405
660 0.015537
672 0.227617
684 0.00490037
696 0.00249376
708 0.00114369
720 0.00106205
732 0.00151394
744 0.0329748
756 0.00860279
768 0.000979278
780 0.00111436
792 0.00175935
804 0.00530332
816 0.140104
828 0.0250707
840 0.00299046
852 0.00135093
864 0.00102897
876 0.000731611
888 0.000812625
900 0.000684609
912 0.000681459
924 0.00145642
936 0.00657642
948 0.338759
960 0.00540239
972 0.00178596
984 0.00179628
996 0.00550413
1008 0.0575946
1020 0.00179144
1032 0.0018667
1044 0.00527237
1056 0.165738
1068 0.0339649
1080 0.00301511
1092 0.00275877
1104 0.0191021
1116 0.0769901
1128 0.00228066
1140 0.00146467
1152 0.00435938
1164 0.0738073
1176 0.00164139
1188 0.00134899
1200 0.00594966
1212 0.0333716
1224 0.00270118
1236 0.00465435
1248 0.0730098
1260 0.0994518
1272 0.00412278
1284 0.00125498
1296 0.000519022
1308 0.000946803
1320 0.00109675
1332 0.00793365
1344 0.0177325
1356 0.00267838
1368 0.00269686
1380 0.0501842
1392 0.00934467
1404 0.00340662
1416 0.0504237
1428 0.0818253
1440 0.00389205
1452 0.00523786
1464 0.0634281
1476 0.00293317
1488 0.00947846
1500 0.0956744
1512 0.0090038
1524 0.00378822
1536 0.0374252
1548 0.00424284
1560 0.00232042
1572 0.0738079
1584 0.0040264
1596 0.00104707
1608 0.000546758
1620 0.00119762
1632 0.00570591
1644 0.0847641
1656 0.00561595
1668 0.00565806
1680 0.0184728
1692 0.00541572
1704 0.0601053
1716 0.100017
1728 0.00749589
1740 0.0290244
1752 0.0180956
1764 0.00138903
1776 0.000742925
1788 0.00106137
1800 0.0120229
1812 0.027092
1824 0.00665842
1836 0.0648
1848 0.0369686
1860 0.00176422
1872 0.000841484
1884 0.00121606
1896 0.0140397
1908 0.00645072
1920 0.0062655
1932 0.0178277
1944 0.00494936
1956 0.0563457
1968 0.0145838
1980 0.0175758
1992 0.0263323
2004 0.00805741
2016 0.0568733
2028 0.00889302
2040 0.00808621
2052 0.00761013
2064 0.0383785
2076 0.0495411
2088 0.00491722
2100 0.00229057
2112 0.00503384
2124 0.022008
2136 0.0205274
2148 0.0208713
2160 0.013103
2172 0.0191287
2184 0.0318715
2196 0.00547753
2208 0.0121169
2220 0.00906654
2232 0.0145062
2244 0.00769187
2256 0.0158445
2268 0.00810961
2280 0.024669
2292 0.0103057
2304 0.000550447
2316 0.000603983
2328 0.00872408
2340 0.00221397
2352 0.00931562
2364 0.00991743
2376 0.0404535
2388 0.0165899
2400 0.0128104
2412 0.00893885
2424 0.0165524
2436 0.0106591
2448 0.0109033
2460 0.0142686
2472 0.0372133
2484 0.0190189
2496 0.00296187
2508 0.00926217
2520 0.0277184
2532 0.00622078
2544 0.00641408
2556 0.00743676
2568 0.00568882
2580 0.012291
2592 0.00824205
2604 0.00133051
2616 0.00224824
2628 0.00828528
2640 0.0135432
2652 0.0273835
2664 0.00804135
2676 0.000707283
2688 0.00200259
2700 0.00266975
2712 0.00829197
2724 0.0133004
2736 0.0249261
2748 0.0134539
2760 0.00535101
2772 0.0141266
2784 0.0130717
2796 0.00814744
2808 0.00799525
2820 0.0164366
2832 0.00163036
2844 0.0021035
2856 0.00841515
2868 0.00846847
2880 0.00631373
2892 0.0197588
2904 0.0189765
2916 0.0104678
2928 0.00708492
2940 0.00994371
2952 0.00631788
2964 0.00666164
2976 0.00905409
2988 0.00413051
3000 0.000329282
3012 0.00527941
3024 0.00702199
3036 0.00707233
3048 0.00801432
3060 0.0060421
3072 0.00935773
3084 0.00884936
3096 0.00703857
3108 0.00594644
3120 0.0112972
3132 0.0158225
3144 0.00581131
3156 0.00214886
3168 0.0081099
3180 0.00681057
3192 0.0118878
3204 0.014069
3216 0.0061014
3228 0.00182222
3240 0.0020584
3252 0.00221532
3264 0.00737237
3276 0.00893354
3288 0.00491331
3300 0.00393774
3312 0.0048448
3324 0.00602778
3336 0.00921889
3348 0.00825101
3360 0.00598198
3372 0.00596695
3384 0.0079846
3396 0.00645095
3408 0.00634807
3420 0.00526129
3432 0.00159337
3444 0.00599094
3456 0.00880811
3468 0.00338402
3480 0.00476457
3487 0.00688902