File: constrainednmf/example_data/BaTiO3_xrd_ramp/BTO_250K_tth.xy
0.000000000000000000e+00 0.000419542
12 0.010274
24 0.010966
36 0.0026682
48 0.00279321
60 0.00294618
72 0.00311294
84 0.0034611
96 0.00344723
108 0.00336221
120 0.00331029
132 0.00327571
144 0.00321826
156 0.00310239
168 0.00300935
180 0.00290109
192 0.00272008
204 0.00263426
216 0.00260316
228 0.00252114
240 0.00256399
252 0.00254009
264 0.00260327
276 0.00281096
288 0.0029938
300 0.00264179
312 0.00252978
324 0.00334876
336 0.0656422
348 0.00202061
360 0.00456487
372 0.00121487
384 0.00123765
396 0.00113821
408 0.00123179
420 0.00157612
432 0.00150175
444 0.00233618
456 0.00477566
468 0.0781967
480 0.0237882
492 0.00348481
504 0.00180737
516 0.00198072
528 0.000431604
540 0.000444699
552 0.000755132
564 0.00173578
576 0.0556227
588 0.00497689
600 0.00141591
612 0.000750959
624 0.00229311
636 0.00185698
648 0.00252047
660 0.0156601
672 0.233767
684 0.00461768
696 0.00232213
708 0.00113246
720 0.000874753
732 0.00149664
744 0.0335801
756 0.0081557
768 0.00103033
780 0.00102841
792 0.00189495
804 0.00526493
816 0.14311
828 0.0243028
840 0.00323547
852 0.00154142
864 0.000932786
876 0.000580118
888 0.000793271
900 0.000696464
912 0.000646453
924 0.00108382
936 0.00636473
948 0.338537
960 0.00516624
972 0.00147394
984 0.00164332
996 0.00514477
1008 0.0557755
1020 0.001358
1032 0.00129193
1044 0.0049601
1056 0.164898
1068 0.0313617
1080 0.00259096
1092 0.00214214
1104 0.0192325
1116 0.0762557
1128 0.0016261
1140 0.00105534
1152 0.00430097
1164 0.0698949
1176 0.00140058
1188 0.000824813
1200 0.00552077
1212 0.0327441
1224 0.00204837
1236 0.00433482
1248 0.0736837
1260 0.0940535
1272 0.00381431
1284 0.0010402
1296 0.000714628
1308 0.000426797
1320 0.00112707
1332 0.00808044
1344 0.0182276
1356 0.00251088
1368 0.00243732
1380 0.0500781
1392 0.00879786
1404 0.00357891
1416 0.0515098
1428 0.0837771
1440 0.00468911
1452 0.005712
1464 0.0623558
1476 0.00314692
1488 0.00967051
1500 0.0939749
1512 0.00923984
1524 0.00410175
1536 0.0374621
1548 0.00453918
1560 0.00328646
1572 0.0766278
1584 0.00420452
1596 0.00157627
1608 0.00102039
1620 0.0017014
1632 0.00619755
1644 0.083937
1656 0.00628306
1668 0.00591452
1680 0.0187203
1692 0.00585202
1704 0.0606681
1716 0.0982837
1728 0.00757077
1740 0.0286054
1752 0.0183186
1764 0.00157666
1776 0.000714976
1788 0.0010504
1800 0.0115256
1812 0.0266384
1824 0.00654892
1836 0.0629394
1848 0.0343757
1860 0.00186697
1872 0.000239464
1884 0.00111378
1896 0.0140413
1908 0.00562419
1920 0.00591507
1932 0.0171733
1944 0.0045877
1956 0.0560644
1968 0.0130652
1980 0.0171699
1992 0.0255486
2004 0.00736305
2016 0.0568658
2028 0.00772813
2040 0.00713044
2052 0.00699839
2064 0.0373669
2076 0.0492074
2088 0.00429614
2100 0.00158978
2112 0.00530659
2124 0.0207557
2136 0.0189873
2148 0.0200886
2160 0.0125965
2172 0.0189102
2184 0.0300333
2196 0.0051058
2208 0.0115208
2220 0.00847868
2232 0.0134429
2244 0.00704579
2256 0.0154221
2268 0.00786254
2280 0.0236768
2292 0.00939052
2304 0.000936183
2316 0.000558214
2328 0.00889766
2340 0.00279916
2352 0.00882617
2364 0.0102031
2376 0.0406235
2388 0.0167208
2400 0.0131992
2412 0.00937849
2424 0.0168878
2436 0.0105467
2448 0.0107971
2460 0.0147521
2472 0.0364733
2484 0.0187817
2496 0.00312118
2508 0.00955923
2520 0.0272995
2532 0.00664449
2544 0.00655194
2556 0.00774663
2568 0.00568521
2580 0.0124022
2592 0.00854068
2604 0.00154165
2616 0.00158289
2628 0.00847215
2640 0.0135796
2652 0.0264287
2664 0.006808
2676 0.000329103
2688 0.00172952
2700 0.00185036
2712 0.0076363
2724 0.0121064
2736 0.0237708
2748 0.012441
2760 0.00518034
2772 0.0128657
2784 0.0116798
2796 0.00721595
2808 0.00737298
2820 0.0151192
2832 0.000663322
2844 0.00130808
2856 0.00716597
2868 0.00737141
2880 0.00458062
2892 0.0170142
2904 0.0177413
2916 0.00940671
2928 0.00629845
2940 0.00917621
2952 0.00550071
2964 0.00548892
2976 0.00816188
2988 0.00313011
3000 0.000240019
3012 0.00464958
3024 0.00692311
3036 0.00697043
3048 0.00854407
3060 0.00722614
3072 0.00885717
3084 0.009905
3096 0.00839727
3108 0.00538729
3120 0.0119385
3132 0.0154224
3144 0.00733251
3156 0.00399729
3168 0.00896221
3180 0.00869044
3192 0.0139137
3204 0.0155425
3216 0.00783917
3228 0.0020693
3240 5.91932e-05
3252 0.00267789
3264 0.00769165
3276 0.00871299
3288 0.00241311
3300 0.0017459
3312 0.00151367
3324 0.00235246
3336 0.00738981
3348 0.00719761
3360 0.00318076
3372 0.00192979
3384 0.00593691
3396 0.00595567
3408 0.00476494
3420 0.000903411
3432 0.00351825
3444 0.00707986
3456 0.0101532
3468 0.00813927
3480 0.00978647
3487 0.00889285