File: constrainednmf/example_data/BaTiO3_xrd_ramp/BTO_220K_tth.xy
0.000000000000000000e+00 0.000274088
12 0.00989138
24 0.01122
36 0.00294525
48 0.00311374
60 0.0033061
72 0.00340454
84 0.00374206
96 0.00360869
108 0.00346144
120 0.00335923
132 0.00324973
144 0.00314779
156 0.00297124
168 0.00282197
180 0.00263426
192 0.00243392
204 0.00223257
216 0.00222147
228 0.00219081
240 0.00214402
252 0.0021463
264 0.00221531
276 0.00235874
288 0.00260917
300 0.00234719
312 0.00216554
324 0.00290987
336 0.0659201
348 0.00169063
360 0.00435434
372 0.000991379
384 0.000811673
396 0.000938985
408 0.00099651
420 0.0013317
432 0.0014037
444 0.00217329
456 0.00468357
468 0.0765218
480 0.0241485
492 0.00337313
504 0.00174434
516 0.00188598
528 0.000417939
540 0.000482769
552 0.000406114
564 0.00155082
576 0.0536438
588 0.00507512
600 0.00100929
612 0.000610359
624 0.00186842
636 0.00167717
648 0.00222823
660 0.0148893
672 0.22315
684 0.0044803
696 0.00231523
708 0.000811794
720 0.000841503
732 0.00133677
744 0.0322028
756 0.00852267
768 0.000794743
780 0.00108999
792 0.00176617
804 0.00486815
816 0.137158
828 0.025464
840 0.00303626
852 0.00103087
864 0.000733156
876 0.000263073
888 0.000672423
900 0.000191725
912 0.000416324
924 0.00112426
936 0.00640812
948 0.33908
960 0.00500813
972 0.00151826
984 0.00150287
996 0.00464249
1008 0.0589401
1020 0.00162274
1032 0.00133275
1044 0.00490885
1056 0.164865
1068 0.0355893
1080 0.00284177
1092 0.00225077
1104 0.0181517
1116 0.0767258
1128 0.00175485
1140 0.00110349
1152 0.00413765
1164 0.0775399
1176 0.00133481
1188 0.00109597
1200 0.0054714
1212 0.0335288
1224 0.00211311
1236 0.00426236
1248 0.0714218
1260 0.104311
1272 0.00380529
1284 0.000933985
1296 0.000445407
1308 0.000507112
1320 0.000635065
1332 0.00747537
1344 0.017484
1356 0.00244931
1368 0.00236162
1380 0.050537
1392 0.00989404
1404 0.00316093
1416 0.0495251
1428 0.0801442
1440 0.00394476
1452 0.00518629
1464 0.0646662
1476 0.00283412
1488 0.00899084
1500 0.098629
1512 0.00948757
1524 0.00360344
1536 0.0387336
1548 0.0045913
1560 0.00222694
1572 0.0720402
1584 0.00402884
1596 0.000620101
1608 0.000768479
1620 0.0011905
1632 0.00562058
1644 0.0864427
1656 0.0059454
1668 0.00558546
1680 0.0185564
1692 0.00533497
1704 0.0594637
1716 0.101494
1728 0.00739077
1740 0.0294637
1752 0.0177109
1764 0.000846251
1776 0.000705414
1788 0.000978754
1800 0.0113377
1812 0.0271849
1824 0.00645143
1836 0.0659399
1848 0.0389052
1860 0.00172081
1872 0.000156391
1884 0.00142459
1896 0.0136743
1908 0.00631385
1920 0.00580957
1932 0.01792
1944 0.00481928
1956 0.0560924
1968 0.0146862
1980 0.0170331
1992 0.0252133
2004 0.00730024
2016 0.0564745
2028 0.00869223
2040 0.00817139
2052 0.00666587
2064 0.0377785
2076 0.0490165
2088 0.00486707
2100 0.00192078
2112 0.00506916
2124 0.0223426
2136 0.0205932
2148 0.0206119
2160 0.0128235
2172 0.0185601
2184 0.0327157
2196 0.00534328
2208 0.011798
2220 0.00791996
2232 0.0146897
2244 0.00778084
2256 0.0161612
2268 0.00812074
2280 0.025781
2292 0.0111141
2304 0.000640078
2316 0.000512762
2328 0.0082079
2340 0.00256946
2352 0.00936126
2364 0.010207
2376 0.0401164
2388 0.0163119
2400 0.0130563
2412 0.00871468
2424 0.0169897
2436 0.011307
2448 0.0111714
2460 0.0143344
2472 0.0377245
2484 0.0195045
2496 0.00311112
2508 0.00884259
2520 0.0284367
2532 0.00721743
2544 0.00707108
2556 0.0075734
2568 0.00527222
2580 0.012647
2592 0.00855856
2604 0.00140607
2616 0.00210135
2628 0.00827953
2640 0.0140322
2652 0.0278337
2664 0.00864523
2676 0.00094536
2688 0.00168797
2700 0.00226413
2712 0.0088496
2724 0.0127535
2736 0.0251382
2748 0.0138734
2760 0.00519371
2772 0.0143079
2784 0.0130463
2796 0.00825712
2808 0.0081946
2820 0.0158401
2832 0.00021917
2844 0.00162187
2856 0.00794511
2868 0.00741652
2880 0.00565821
2892 0.0188365
2904 0.0189273
2916 0.0111451
2928 0.00734503
2940 0.00876221
2952 0.00686927
2964 0.00633672
2976 0.00931784
2988 0.00345037
3000 0.0010166
3012 0.00548237
3024 0.0061087
3036 0.00722172
3048 0.00881717
3060 0.00536096
3072 0.0098061
3084 0.00919088
3096 0.00754335
3108 0.00553663
3120 0.0118816
3132 0.0163155
3144 0.00543318
3156 0.00259532
3168 0.00904914
3180 0.00746502
3192 0.01244
3204 0.014639
3216 0.00832318
3228 0.00256666
3240 0.00183836
3252 0.00388888
3264 0.00748347
3276 0.0085182
3288 0.0039752
3300 0.00155169
3312 0.00224998
3324 0.00288818
3336 0.00748341
3348 0.00991689
3360 0.00767468
3372 0.00648498
3384 0.0067802
3396 0.00739498
3408 0.00481252
3420 0.00254082
3432 0.0036207
3444 0.00851103
3456 0.00904026
3468 0.00785509
3480 0.00862269
3487 0.0110772