File: constrainednmf/example_data/BaTiO3_xrd_ramp/BTO_165K_tth.xy
0.000000000000000000e+00 0.000146653
12 0.0100997
24 0.0111528
36 0.0032598
48 0.00346453
60 0.00360211
72 0.00370801
84 0.00398382
96 0.0038268
108 0.00362957
120 0.0034597
132 0.00329856
144 0.00302657
156 0.00286557
168 0.00262351
180 0.00246379
192 0.00218268
204 0.00196855
216 0.00185192
228 0.00177501
240 0.00168084
252 0.00176896
264 0.00167613
276 0.00179675
288 0.00198975
300 0.0018654
312 0.00171078
324 0.00257015
336 0.0660573
348 0.00172528
360 0.00396867
372 0.00084046
384 0.00118287
396 0.000976475
408 0.000961194
420 0.00130198
432 0.0013177
444 0.00206979
456 0.00445173
468 0.0589119
480 0.0267018
492 0.00348948
504 0.00191471
516 0.00214814
528 0.000304981
540 0.000384233
552 0.00056814
564 0.00148441
576 0.0447894
588 0.00558107
600 0.00120975
612 0.000719643
624 0.00187955
636 0.00187683
648 0.00819061
660 0.0125549
672 0.260985
684 0.0050634
696 0.00307827
708 0.000859416
720 0.000729262
732 0.0010443
744 0.0196894
756 0.00931957
768 0.000605
780 0.00131955
792 0.00126178
804 0.00408558
816 0.0937307
828 0.0295199
840 0.00283698
852 0.000752068
864 0.000512928
876 0.000341554
888 0.00066011
900 0.000156707
912 0.000529094
924 0.00114425
936 0.0056952
948 0.35161
960 0.00571998
972 0.00181033
984 0.0023047
996 0.00425728
1008 0.076312
1020 0.00168987
1032 0.00154393
1044 0.00454951
1056 0.0996174
1068 0.0344414
1080 0.00306231
1092 0.00265123
1104 0.0124671
1116 0.0645299
1128 0.00206946
1140 0.000906835
1152 0.00406101
1164 0.111726
1176 0.00150703
1188 0.000698594
1200 0.00409649
1212 0.0361394
1224 0.00224773
1236 0.00403877
1248 0.0450854
1260 0.110397
1272 0.00420491
1284 0.00115332
1296 0.00036423
1308 0.000305151
1320 0.00062808
1332 0.00434374
1344 0.0366563
1356 0.00295267
1368 0.00180702
1380 0.0409096
1392 0.0077727
1404 0.00259823
1416 0.0264368
1428 0.0806442
1440 0.00424185
1452 0.00411551
1464 0.0697445
1476 0.00263154
1488 0.00669536
1500 0.131602
1512 0.0107528
1524 0.00312876
1536 0.0411255
1548 0.00500384
1560 0.0021084
1572 0.0574324
1584 0.00522191
1596 0.000660492
1608 0.000381369
1620 0.00102853
1632 0.00406203
1644 0.0964675
1656 0.00701645
1668 0.00333967
1680 0.0238706
1692 0.00435392
1704 0.0319208
1716 0.126493
1728 0.00774687
1740 0.0209286
1752 0.011333
1764 0.000834928
1776 0.00017962
1788 0.000768934
1800 0.00673132
1812 0.0375809
1824 0.00526358
1836 0.0561785
1848 0.024656
1860 0.00218554
1872 0.000598531
1884 0.00138182
1896 0.0142916
1908 0.00820214
1920 0.00433973
1932 0.0239899
1944 0.0047779
1956 0.048423
1968 0.0152742
1980 0.011489
1992 0.0311924
2004 0.00657895
2016 0.0557721
2028 0.0068537
2040 0.00789206
2052 0.00598197
2064 0.0229852
2076 0.0697588
2088 0.0059001
2100 0.00219722
2112 0.00368781
2124 0.0298979
2136 0.0116309
2148 0.0199283
2160 0.0124424
2172 0.0160737
2184 0.0387488
2196 0.00508627
2208 0.01598
2220 0.00523464
2232 0.0289618
2244 0.00706945
2256 0.0193391
2268 0.0059386
2280 0.034215
2292 0.00901477
2304 0.000780314
2316 0.000215198
2328 0.00498672
2340 0.00196074
2352 0.0102215
2364 0.0075449
2376 0.0398094
2388 0.0169576
2400 0.0159887
2412 0.00739797
2424 0.0166153
2436 0.00915994
2448 0.0133795
2460 0.00904375
2472 0.0475609
2484 0.0130987
2496 0.0025203
2508 0.00506915
2520 0.0365398
2532 0.00641769
2544 0.00875764
2556 0.00443642
2568 0.00984042
2580 0.0112719
2592 0.0124318
2604 0.000667121
2616 0.00109742
2628 0.0089985
2640 0.00860894
2652 0.0383377
2664 0.00759839
2676 0.000696371
2688 0.00132361
2700 0.00258876
2712 0.00969663
2724 0.00884268
2736 0.0308106
2748 0.0108047
2760 0.00714474
2772 0.0115102
2784 0.0195392
2796 0.0109424
2808 0.00622696
2820 0.0153885
2832 0.00236247
2844 0.00147284
2856 0.00905129
2868 0.00873178
2880 0.00715662
2892 0.0147873
2904 0.0320582
2916 0.0121672
2928 0.00679264
2940 0.0098463
2952 0.00701884
2964 0.00902108
2976 0.0100973
2988 0.00388717
3000 0.000570494
3012 0.00583014
3024 0.00660577
3036 0.00913492
3048 0.00699065
3060 0.00893717
3072 0.00988341
3084 0.00763938
3096 0.0131719
3108 0.00593493
3120 0.0102093
3132 0.0251639
3144 0.00361255
3156 0.0036868
3168 0.00970512
3180 0.00851128
3192 0.0103146
3204 0.0227769
3216 0.00691869
3228 0.00263914
3240 0.00129078
3252 0.00243284
3264 0.00647652
3276 0.0155511
3288 0.00244491
3300 0.00143444
3312 0.00511796
3324 0.0027703
3336 0.00777575
3348 0.0154908
3360 0.00815917
3372 0.00707216
3384 0.00821602
3396 0.00780407
3408 0.00699975
3420 0.000927764
3432 0.00295665
3444 0.00810238
3456 0.00778098
3468 0.00729838
3480 0.00506497
3487 0.00613078