File: constrainednmf/example_data/BaTiO3_xrd_ramp/BTO_155K_tth.xy
0.000000000000000000e+00 0.000624454
12 0.0100195
24 0.010959
36 0.0028581
48 0.0030364
60 0.00311763
72 0.00331318
84 0.00361938
96 0.00360412
108 0.00347426
120 0.00347869
132 0.00343188
144 0.00334237
156 0.00328942
168 0.00317079
180 0.00306338
192 0.00293352
204 0.00275974
216 0.00268772
228 0.0026035
240 0.00257059
252 0.00258909
264 0.00256927
276 0.00260271
288 0.00290154
300 0.0027091
312 0.00259859
324 0.00334559
336 0.0668776
348 0.00240383
360 0.00456032
372 0.0015094
384 0.00165112
396 0.00139152
408 0.00136514
420 0.00176863
432 0.00164874
444 0.00238653
456 0.00464538
468 0.0586024
480 0.0271196
492 0.00365341
504 0.00213078
516 0.00225424
528 0.000749637
540 0.00058748
552 0.000787908
564 0.00173143
576 0.0445546
588 0.00596013
600 0.0014405
612 0.00110883
624 0.00228031
636 0.00222458
648 0.0095461
660 0.0127364
672 0.265002
684 0.00531247
696 0.00339207
708 0.00149907
720 0.000918551
732 0.00150119
744 0.019751
756 0.00989047
768 0.00127743
780 0.00205124
792 0.00176057
804 0.00473032
816 0.0918758
828 0.0304387
840 0.00345606
852 0.00137881
864 0.000965676
876 0.000994063
888 0.00126042
900 0.000608741
912 0.00078571
924 0.00147411
936 0.00576627
948 0.352643
960 0.0062305
972 0.00194973
984 0.00240971
996 0.00422159
1008 0.0780318
1020 0.00207594
1032 0.00159863
1044 0.0045211
1056 0.0957861
1068 0.0338765
1080 0.00310091
1092 0.00263771
1104 0.0123236
1116 0.0651327
1128 0.00207513
1140 0.00116666
1152 0.00404299
1164 0.113752
1176 0.00164613
1188 0.000958142
1200 0.0038228
1212 0.0368601
1224 0.00229222
1236 0.00377641
1248 0.0439704
1260 0.111229
1272 0.00438464
1284 0.00126118
1296 0.000672084
1308 0.000754768
1320 0.0011343
1332 0.00456345
1344 0.0384566
1356 0.00355294
1368 0.00243541
1380 0.0408158
1392 0.00845757
1404 0.00316801
1416 0.0260462
1428 0.0824205
1440 0.00515369
1452 0.0047124
1464 0.0706119
1476 0.00354287
1488 0.00766182
1500 0.133865
1512 0.012231
1524 0.00402278
1536 0.042445
1548 0.00616082
1560 0.00308067
1572 0.0576667
1584 0.00643821
1596 0.00204999
1608 0.00145996
1620 0.00185279
1632 0.00504232
1644 0.0973144
1656 0.00800704
1668 0.00465639
1680 0.025429
1692 0.00510127
1704 0.0317127
1716 0.13064
1728 0.00882938
1740 0.0214118
1752 0.0120187
1764 0.00135215
1776 0.000503425
1788 0.00101176
1800 0.00693583
1812 0.0392722
1824 0.00562662
1836 0.0554595
1848 0.0242277
1860 0.00226904
1872 0.000404807
1884 0.00049737
1896 0.0140937
1908 0.00820476
1920 0.00383925
1932 0.0239724
1944 0.00399997
1956 0.0478621
1968 0.0148238
1980 0.0105235
1992 0.0315164
2004 0.0059261
2016 0.0552945
2028 0.00641687
2040 0.00686746
2052 0.00557552
2064 0.0213908
2076 0.0715334
2088 0.00547184
2100 0.00146418
2112 0.00308489
2124 0.0297309
2136 0.0109681
2148 0.0194338
2160 0.0122532
2172 0.0151619
2184 0.0396924
2196 0.00466487
2208 0.0164114
2220 0.00504984
2232 0.030345
2244 0.00704394
2256 0.0191057
2268 0.00600307
2280 0.0345444
2292 0.00883261
2304 0.000937196
2316 0.000282283
2328 0.0053395
2340 0.00296242
2352 0.0104907
2364 0.00782477
2376 0.0405456
2388 0.0182374
2400 0.0171935
2412 0.00822541
2424 0.0183447
2436 0.0102975
2448 0.0146167
2460 0.0101646
2472 0.0493233
2484 0.0142506
2496 0.00359763
2508 0.00632163
2520 0.0386976
2532 0.0078536
2544 0.010369
2556 0.00571435
2568 0.0116212
2580 0.0121429
2592 0.0147537
2604 0.00205091
2616 0.00172849
2628 0.00985969
2640 0.00904429
2652 0.0395721
2664 0.00814867
2676 0.000819556
2688 0.0014662
2700 0.00287068
2712 0.0100163
2724 0.0101834
2736 0.0315678
2748 0.0100009
2760 0.0074968
2772 0.0111452
2784 0.0210758
2796 0.0111059
2808 0.00693647
2820 0.0162238
2832 0.00253259
2844 0.00158981
2856 0.00926599
2868 0.00923915
2880 0.00670816
2892 0.0145529
2904 0.0347063
2916 0.0114669
2928 0.00643038
2940 0.010491
2952 0.00720009
2964 0.00848602
2976 0.00971167
2988 0.00489774
3000 0.000523978
3012 0.00462004
3024 0.0079638
3036 0.0097481
3048 0.00767351
3060 0.00971501
3072 0.0107999
3084 0.00772787
3096 0.0149485
3108 0.00835293
3120 0.0107889
3132 0.0272461
3144 0.00506572
3156 0.00327705
3168 0.0112028
3180 0.00994718
3192 0.0110352
3204 0.0236741
3216 0.00736706
3228 0.00336631
3240 0.000975586
3252 0.00210426
3264 0.00592978
3276 0.0151556
3288 0.00229856
3300 0.00118765
3312 0.00424953
3324 0.00263805
3336 0.00696446
3348 0.0143689
3360 0.00923731
3372 0.00356929
3384 0.00571528
3396 0.00949675
3408 0.0055206
3420 0.00637143
3432 0.00422249
3444 0.011829
3456 0.00960154
3468 0.0173292
3480 0.0137156
3487 0.0369925