File: constrainednmf/example_data/BaTiO3_xrd_ramp/BTO_300K_tth.xy
0.000000000000000000e+00 0.000286767
12 0.0116867
24 0.0125899
36 0.0028996
48 0.0030263
60 0.0032272
72 0.00340898
84 0.00379697
96 0.00370731
108 0.00357107
120 0.00347458
132 0.00341885
144 0.00328538
156 0.00306412
168 0.00300574
180 0.00281373
192 0.00271282
204 0.00252893
216 0.0024813
228 0.00238916
240 0.00242196
252 0.00247532
264 0.00243091
276 0.0025564
288 0.00282861
300 0.00249878
312 0.00235929
324 0.00335545
336 0.0710727
348 0.00181403
360 0.00450723
372 0.00102806
384 0.000880504
396 0.000962889
408 0.00101323
420 0.00147407
432 0.00148196
444 0.00246327
456 0.00505709
468 0.0827868
480 0.0248152
492 0.00358084
504 0.00175067
516 0.00187653
528 0.00055694
540 0.000504311
552 0.000645135
564 0.0018129
576 0.0598783
588 0.00506428
600 0.000993245
612 0.000690317
624 0.00216972
636 0.00175238
648 0.0024482
660 0.0188156
672 0.328451
684 0.00467867
696 0.00218788
708 0.0010188
720 0.0009866
732 0.00170344
744 0.0451449
756 0.00785173
768 0.00108222
780 0.00118162
792 0.00205321
804 0.00556484
816 0.179223
828 0.023264
840 0.00328128
852 0.00129501
864 0.000902497
876 0.000450814
888 0.000904625
900 0.000262965
912 0.000550436
924 0.00155138
936 0.00710322
948 0.296567
960 0.00524642
972 0.00161549
984 0.00140938
996 0.00655429
1008 0.059218
1020 0.00142109
1032 0.00165256
1044 0.00553179
1056 0.125485
1068 0.024589
1080 0.00269531
1092 0.002422
1104 0.0320544
1116 0.0778722
1128 0.00172314
1140 0.000963547
1152 0.00429569
1164 0.0556607
1176 0.00128609
1188 0.000998609
1200 0.00610076
1212 0.0325502
1224 0.00234518
1236 0.00466641
1248 0.0898702
1260 0.0862927
1272 0.00343227
1284 0.000893712
1296 0.000748173
1308 0.000394518
1320 0.00106396
1332 0.0164815
1344 0.0331405
1356 0.00225152
1368 0.00292721
1380 0.0406012
1392 0.00616782
1404 0.00370935
1416 0.0590532
1428 0.107772
1440 0.00392765
1452 0.00537936
1464 0.0454167
1476 0.00306997
1488 0.0124983
1500 0.0815713
1512 0.00790723
1524 0.00411829
1536 0.0264983
1548 0.00374753
1560 0.00296722
1572 0.0949707
1584 0.0037404
1596 0.00112774
1608 0.000989531
1620 0.00115774
1632 0.0070133
1644 0.0781851
1656 0.00551009
1668 0.00644681
1680 0.0163073
1692 0.00607068
1704 0.0592922
1716 0.117728
1728 0.00785469
1740 0.0178308
1752 0.0153808
1764 0.000819062
1776 0.000648645
1788 0.00112558
1800 0.0122968
1812 0.0300752
1824 0.00811143
1836 0.0357033
1848 0.0209522
1860 0.00168953
1872 0.000273177
1884 0.00105396
1896 0.0243074
1908 0.00836622
1920 0.00705577
1932 0.0167234
1944 0.00479141
1956 0.0521566
1968 0.0114599
1980 0.0202562
1992 0.0274722
2004 0.00867633
2016 0.0483477
2028 0.00719175
2040 0.00426454
2052 0.00937686
2064 0.0377759
2076 0.0623452
2088 0.00338984
2100 0.00168125
2112 0.01111
2124 0.0130096
2136 0.0128752
2148 0.0164395
2160 0.0140166
2172 0.0264624
2184 0.0261659
2196 0.00584411
2208 0.0126421
2220 0.0121632
2232 0.0172242
2244 0.00677429
2256 0.0138265
2268 0.0119969
2280 0.0176274
2292 0.0057736
2304 0.000354464
2316 0.000430135
2328 0.0109118
2340 0.00263737
2352 0.00610089
2364 0.0109888
2376 0.0412576
2388 0.0205255
2400 0.0129535
2412 0.011717
2424 0.0133985
2436 0.0109447
2448 0.00904596
2460 0.0176577
2472 0.0292324
2484 0.0119876
2496 0.00301625
2508 0.0122008
2520 0.029046
2532 0.00547061
2544 0.00715835
2556 0.00533204
2568 0.0101532
2580 0.00922896
2592 0.0120859
2604 0.000838395
2616 0.00175467
2628 0.00774213
2640 0.0139899
2652 0.0212158
2664 0.00455089
2676 0.00104814
2688 0.000795049
2700 0.00342774
2712 0.00764551
2724 0.0144008
2736 0.0226101
2748 0.0102094
2760 0.00686558
2772 0.0100224
2784 0.0137061
2796 0.00405198
2808 0.00718753
2820 0.0117682
2832 0.000507749
2844 0.00280314
2856 0.0057941
2868 0.0109526
2880 0.00561672
2892 0.0134539
2904 0.022816
2916 0.00721315
2928 0.00566406
2940 0.00606194
2952 0.00427794
2964 0.00589866
2976 0.00753248
2988 0.0034005
3000 0.00193314
3012 0.00206111
3024 0.00817366
3036 0.00573112
3048 0.00492177
3060 0.00810265
3072 0.00672962
3084 0.00619491
3096 0.0104965
3108 0.00507034
3120 0.0115728
3132 0.0119907
3144 0.00349705
3156 0.00354591
3168 0.00831249
3180 0.0061524
3192 0.01138
3204 0.0158671
3216 0.00505795
3228 0.00352884
3240 0.00325807
3252 0.00156451
3264 0.00619621
3276 0.00743433
3288 0.00241289
3300 0.00185159
3312 0.00322274
3324 0.00461539
3336 0.00655396
3348 0.0108593
3360 0.0045495
3372 0.00711386
3384 0.00545582
3396 0.00545004
3408 0.0035153
3420 0.0042565
3432 0.00289262
3444 0.00987884
3456 0.0135169
3468 0.0110734
3480 0.0151317
3487 0.0206107