File: constrainednmf/example_data/BaTiO3_xrd_ramp/BTO_200K_tth.xy
0.000000000000000000e+00 0.000466732
12 0.0105377
24 0.0116514
36 0.00332307
48 0.00351371
60 0.00364557
72 0.00380448
84 0.0040961
96 0.00390453
108 0.00378157
120 0.00369063
132 0.00357274
144 0.00335925
156 0.00323425
168 0.0030067
180 0.0029052
192 0.00265585
204 0.0024567
216 0.00243636
228 0.00224873
240 0.00221781
252 0.00222826
264 0.00227223
276 0.00226711
288 0.00254433
300 0.00235298
312 0.00224513
324 0.00309979
336 0.0683528
348 0.00217462
360 0.00453932
372 0.00123299
384 0.00185324
396 0.00122148
408 0.00114171
420 0.00169282
432 0.00150266
444 0.00239415
456 0.00485889
468 0.0673828
480 0.0269692
492 0.00358267
504 0.00193519
516 0.00219683
528 0.000682582
540 0.000554489
552 0.000767479
564 0.00192725
576 0.0479382
588 0.0056088
600 0.00143493
612 0.00106293
624 0.00223436
636 0.00214395
648 0.0074443
660 0.0142124
672 0.234176
684 0.00524259
696 0.00357851
708 0.00139559
720 0.00101807
732 0.00138154
744 0.0256478
756 0.00995373
768 0.000833026
780 0.00128461
792 0.00164898
804 0.00460009
816 0.112121
828 0.0294359
840 0.00319242
852 0.00109479
864 0.00113449
876 0.000963944
888 0.00101605
900 0.000655633
912 0.000677858
924 0.00142525
936 0.00609855
948 0.341802
960 0.0058874
972 0.00225979
984 0.00230378
996 0.00448868
1008 0.0711479
1020 0.0020127
1032 0.00176048
1044 0.00503561
1056 0.136153
1068 0.0422309
1080 0.00327186
1092 0.00309765
1104 0.0149855
1116 0.071886
1128 0.00215688
1140 0.00102344
1152 0.00400414
1164 0.100892
1176 0.00154028
1188 0.00106819
1200 0.00469608
1212 0.0348619
1224 0.0023054
1236 0.00392277
1248 0.0567245
1260 0.121339
1272 0.00418374
1284 0.000952053
1296 0.000489817
1308 0.000785717
1320 0.000828298
1332 0.00573318
1344 0.0249282
1356 0.00315893
1368 0.00210267
1380 0.047631
1392 0.0110649
1404 0.00365161
1416 0.0379528
1428 0.0797268
1440 0.00478611
1452 0.00521148
1464 0.0689784
1476 0.00338851
1488 0.00815036
1500 0.119429
1512 0.0116267
1524 0.00397488
1536 0.0417802
1548 0.00583916
1560 0.00271383
1572 0.0631966
1584 0.00494336
1596 0.00126559
1608 0.00109908
1620 0.00173871
1632 0.00511206
1644 0.094923
1656 0.00729462
1668 0.00482097
1680 0.0213158
1692 0.00523179
1704 0.0461016
1716 0.114039
1728 0.00816706
1740 0.0269882
1752 0.0141826
1764 0.00158584
1776 0.000584745
1788 0.00097149
1800 0.00893944
1812 0.0322054
1824 0.00547608
1836 0.0644153
1848 0.0367983
1860 0.00183668
1872 0.00077714
1884 0.00105638
1896 0.0133621
1908 0.0080299
1920 0.00529682
1932 0.0205501
1944 0.00466573
1956 0.0523641
1968 0.0171877
1980 0.0147331
1992 0.0262818
2004 0.00691483
2016 0.0561747
2028 0.00875635
2040 0.00860851
2052 0.00639722
2064 0.0306583
2076 0.0555568
2088 0.00610059
2100 0.00229535
2112 0.00400995
2124 0.0271966
2136 0.0172007
2148 0.0207632
2160 0.0124436
2172 0.0177859
2184 0.0367674
2196 0.0050363
2208 0.0135528
2220 0.00682587
2232 0.0211857
2244 0.00870845
2256 0.0181082
2268 0.00727259
2280 0.0311609
2292 0.0130693
2304 0.000987127
2316 0.000523239
2328 0.00737253
2340 0.00279788
2352 0.0101717
2364 0.0095744
2376 0.0403272
2388 0.0173181
2400 0.01498
2412 0.00868335
2424 0.0175259
2436 0.0122018
2448 0.0128313
2460 0.01236
2472 0.0434675
2484 0.0171865
2496 0.00317767
2508 0.0073986
2520 0.0337935
2532 0.00731371
2544 0.00805725
2556 0.00680326
2568 0.00749504
2580 0.0128882
2592 0.0108897
2604 0.00144894
2616 0.00132877
2628 0.00886963
2640 0.0119105
2652 0.0332421
2664 0.0100172
2676 0.00078048
2688 0.00185071
2700 0.00283621
2712 0.00974812
2724 0.0109132
2736 0.0286304
2748 0.0128238
2760 0.00588731
2772 0.0134686
2784 0.0154354
2796 0.0111924
2808 0.00747341
2820 0.016471
2832 0.000433114
2844 0.00094029
2856 0.00900525
2868 0.00782937
2880 0.00605285
2892 0.016555
2904 0.0226
2916 0.0123077
2928 0.00754955
2940 0.00945314
2952 0.00690224
2964 0.00729968
2976 0.00976418
2988 0.00478526
3000 0.00176379
3012 0.00423444
3024 0.00617366
3036 0.0081964
3048 0.00875942
3060 0.00747014
3072 0.0106879
3084 0.00797436
3096 0.00952884
3108 0.00616336
3120 0.011241
3132 0.0212092
3144 0.00535781
3156 0.00247147
3168 0.00870451
3180 0.0078372
3192 0.0111585
3204 0.0186106
3216 0.00800388
3228 0.00123749
3240 0.00213178
3252 0.00131193
3264 0.0062821
3276 0.0108733
3288 0.00372705
3300 0.00149068
3312 0.00333052
3324 0.00538496
3336 0.0082289
3348 0.0119272
3360 0.0081803
3372 0.00517831
3384 0.00740234
3396 0.00621619
3408 0.0056862
3420 0.00418574
3432 0.00435967
3444 0.00989276
3456 0.00920101
3468 0.011417
3480 0.0145943
3487 0.0260507