File: constrainednmf/example_data/BaTiO3_xrd_ramp/BTO_415K_tth.xy
0.000000000000000000e+00 0.000290786
12 0.0121342
24 0.0128777
36 0.00301336
48 0.00310755
60 0.00319937
72 0.00325297
84 0.00366287
96 0.00347797
108 0.00334652
120 0.0032192
132 0.00318618
144 0.00292292
156 0.00289604
168 0.00267736
180 0.00263951
192 0.00243823
204 0.00222883
216 0.00226815
228 0.00222253
240 0.002163
252 0.00225613
264 0.00237374
276 0.00258164
288 0.00270813
300 0.0022676
312 0.00212798
324 0.00305011
336 0.0524065
348 0.00148346
360 0.00413037
372 0.000795833
384 0.00089254
396 0.000795647
408 0.000981865
420 0.00115115
432 0.00122903
444 0.00210838
456 0.00480639
468 0.0845281
480 0.0198549
492 0.00325857
504 0.00189788
516 0.00176143
528 0.00046434
540 0.000189399
552 0.000407419
564 0.00156769
576 0.0711796
588 0.00438964
600 0.0011418
612 0.000763971
624 0.00192868
636 0.00161057
648 0.0024884
660 0.0175054
672 0.222285
684 0.00409855
696 0.00162997
708 0.000689573
720 0.000919497
732 0.00141639
744 0.0348857
756 0.00503019
768 0.00100909
780 0.0010069
792 0.00211445
804 0.0056838
816 0.161626
828 0.0173394
840 0.00306284
852 0.00133603
864 0.000981479
876 0.000641447
888 0.000743853
900 0.000505783
912 0.000419099
924 0.00128828
936 0.00757202
948 0.308574
960 0.00424546
972 0.00137498
984 0.00118199
996 0.00558381
1008 0.0351022
1020 0.00164803
1032 0.00172527
1044 0.00579096
1056 0.1349
1068 0.0138286
1080 0.00281142
1092 0.00231702
1104 0.0220024
1116 0.0288857
1128 0.00119927
1140 0.000971917
1152 0.00514035
1164 0.0279914
1176 0.00125302
1188 0.00118079
1200 0.00547408
1212 0.0179737
1224 0.00237646
1236 0.00504831
1248 0.0734567
1260 0.0354215
1272 0.00362133
1284 0.000837701
1296 0.000403682
1308 0.000447085
1320 0.000814163
1332 0.00955883
1344 0.0375543
1356 0.00158776
1368 0.00256978
1380 0.0478426
1392 0.00331151
1404 0.00346017
1416 0.0481008
1428 0.0345806
1440 0.00352779
1452 0.00518092
1464 0.0365244
1476 0.00282422
1488 0.0103101
1500 0.132102
1512 0.00524896
1524 0.00354289
1536 0.0405043
1548 0.00200406
1560 0.0025287
1572 0.107255
1584 0.0027122
1596 0.000682792
1608 0.00061771
1620 0.00105871
1632 0.00678292
1644 0.114871
1656 0.00403291
1668 0.00515387
1680 0.0175512
1692 0.0059584
1704 0.0506238
1716 0.0537321
1728 0.00604171
1740 0.0196327
1752 0.00482811
1764 0.00112352
1776 0.000450546
1788 0.000924862
1800 0.0101286
1812 0.0131789
1824 0.00678205
1836 0.0431829
1848 0.00730064
1860 0.000888692
1872 0.000311957
1884 0.000911886
1896 0.0260576
1908 0.00259605
1920 0.00456364
1932 0.0133388
1944 0.00445498
1956 0.0665766
1968 0.00547735
1980 0.0158521
1992 0.0124728
2004 0.00751736
2016 0.0499073
2028 0.00384523
2040 0.0044093
2052 0.0049643
2064 0.0309562
2076 0.0265203
2088 0.00279586
2100 0.0014701
2112 0.00573301
2124 0.0215422
2136 0.00513964
2148 0.0180232
2160 0.00496326
2172 0.0238109
2184 0.00994909
2196 0.00454362
2208 0.00547673
2220 0.00854144
2232 0.0258145
2244 0.00389925
2256 0.0148689
2268 0.00641007
2280 0.0301637
2292 0.00207615
2304 0.000588979
2316 0.000568505
2328 0.0121664
2340 0.00215045
2352 0.00810679
2364 0.00695429
2376 0.0477465
2388 0.00784163
2400 0.0131042
2412 0.00510743
2424 0.017532
2436 0.00552093
2448 0.0114518
2460 0.01134
2472 0.0403791
2484 0.00484852
2496 0.00326941
2508 0.00839879
2520 0.0270492
2532 0.00418711
2544 0.00578602
2556 0.00495762
2568 0.00675374
2580 0.00954738
2592 0.00484194
2604 0.00176221
2616 0.00236263
2628 0.00885738
2640 0.00979274
2652 0.0268842
2664 0.00194542
2676 0.00117531
2688 0.00164082
2700 0.00300597
2712 0.00800209
2724 0.00810296
2736 0.0242854
2748 0.00465666
2760 0.00556302
2772 0.00993733
2784 0.00730043
2796 0.00583168
2808 0.00337786
2820 0.00967098
2832 0.000231325
2844 0.00189093
2856 0.00663438
2868 0.0032646
2880 0.00478555
2892 0.0118985
2904 0.0122265
2916 0.00796317
2928 0.00306512
2940 0.00549157
2952 0.00400832
2964 0.00293479
2976 0.00726915
2988 0.00213472
3000 0.000436784
3012 0.00351213
3024 0.00318402
3036 0.00546741
3048 0.00350922
3060 0.00550485
3072 0.00792664
3084 0.00523482
3096 0.00722278
3108 0.00340925
3120 0.00773598
3132 0.0099921
3144 0.00255995
3156 0.00367533
3168 0.00598736
3180 0.00664558
3192 0.00779076
3204 0.0109369
3216 0.00320856
3228 0.00330282
3240 0.0011185
3252 0.00278904
3264 0.00556754
3276 0.0067474
3288 2.87349e-05
3300 0.00301206
3312 0.00288536
3324 0.00378421
3336 0.00569086
3348 0.00887258
3360 0.00519919
3372 0.00291573
3384 0.00350819
3396 0.00735885
3408 0.00575095
3420 0.00148974
3432 0.00656331
3444 0.00853868
3456 0.00598249
3468 0.00401056
3480 0.00672173
3487 0.0554563