File: constrainednmf/example_data/BaTiO3_xrd_ramp/BTO_390K_tth.xy
0.000000000000000000e+00 0.000366404
12 0.0126052
24 0.013464
36 0.0034493
48 0.00355944
60 0.00367451
72 0.00378321
84 0.00413537
96 0.00393674
108 0.00374481
120 0.00364427
132 0.00347955
144 0.00322834
156 0.00308433
168 0.00297098
180 0.00276335
192 0.00256285
204 0.0024386
216 0.00231019
228 0.00228345
240 0.00222077
252 0.00229177
264 0.00232873
276 0.002525
288 0.00269918
300 0.00228312
312 0.00214121
324 0.00310664
336 0.059175
348 0.0016305
360 0.00451182
372 0.000901033
384 0.00102307
396 0.000980895
408 0.00118478
420 0.00133909
432 0.00144565
444 0.00243558
456 0.00505523
468 0.0870945
480 0.021575
492 0.00366801
504 0.00188668
516 0.00198567
528 0.000696936
540 0.000245049
552 0.000696595
564 0.00193511
576 0.0700665
588 0.00475254
600 0.0012812
612 0.000877274
624 0.0023476
636 0.0018566
648 0.00262409
660 0.0192142
672 0.277825
684 0.00452846
696 0.0018748
708 0.000820691
720 0.00091895
732 0.00168263
744 0.0415591
756 0.00586508
768 0.00115665
780 0.00122812
792 0.00201879
804 0.00579126
816 0.179975
828 0.0186747
840 0.00310774
852 0.00127399
864 0.000851882
876 0.00054594
888 0.000548031
900 0.00056861
912 0.000532755
924 0.00134021
936 0.00717884
948 0.289365
960 0.0044248
972 0.00186311
984 0.00127663
996 0.00628129
1008 0.044005
1020 0.0012085
1032 0.00146783
1044 0.00620965
1056 0.127659
1068 0.016182
1080 0.00275269
1092 0.00248266
1104 0.0274007
1116 0.0388855
1128 0.00172238
1140 0.00117102
1152 0.00491063
1164 0.0324632
1176 0.00122624
1188 0.00101842
1200 0.00596908
1212 0.0240492
1224 0.00254672
1236 0.00487808
1248 0.0859801
1260 0.0448105
1272 0.00342308
1284 0.00105312
1296 0.00052579
1308 0.000466098
1320 0.00065057
1332 0.0139656
1344 0.0475121
1356 0.00154402
1368 0.00265467
1380 0.0422945
1392 0.00402504
1404 0.00392291
1416 0.0592522
1428 0.0507477
1440 0.00327176
1452 0.0051914
1464 0.0418538
1476 0.00299774
1488 0.0114123
1500 0.111999
1512 0.00589291
1524 0.00392687
1536 0.0315402
1548 0.00255888
1560 0.00260882
1572 0.1058
1584 0.00283916
1596 0.0011287
1608 0.000987775
1620 0.00147168
1632 0.00725908
1644 0.107254
1656 0.00450813
1668 0.00552472
1680 0.0179766
1692 0.00605539
1704 0.0574151
1716 0.0818725
1728 0.00632388
1740 0.0169262
1752 0.00602993
1764 0.000949093
1776 0.000520243
1788 0.00108099
1800 0.0123287
1812 0.0189198
1824 0.00771001
1836 0.0313085
1848 0.00908072
1860 0.0013955
1872 6.19289e-05
1884 0.000880651
1896 0.0282514
1908 0.00352353
1920 0.00575164
1932 0.0170916
1944 0.00493302
1956 0.0605337
1968 0.00676986
1980 0.019579
1992 0.018862
2004 0.00918753
2016 0.0452717
2028 0.00452286
2040 0.00380303
2052 0.00574996
2064 0.0344258
2076 0.0415024
2088 0.00307973
2100 0.00198533
2112 0.00819951
2124 0.0148242
2136 0.00647658
2148 0.0171177
2160 0.00681512
2172 0.0278833
2184 0.0165591
2196 0.0054898
2208 0.00680451
2220 0.0116775
2232 0.0290915
2244 0.00536391
2256 0.0144525
2268 0.0084245
2280 0.0244488
2292 0.00237237
2304 0.000294487
2316 0.000821469
2328 0.0129554
2340 0.00232634
2352 0.00651952
2364 0.00909079
2376 0.0427334
2388 0.00991818
2400 0.0111553
2412 0.00578391
2424 0.0154639
2436 0.00593895
2448 0.00965813
2460 0.0145118
2472 0.031969
2484 0.00534834
2496 0.00293313
2508 0.0105733
2520 0.0274099
2532 0.00451397
2544 0.00623842
2556 0.00408799
2568 0.00945041
2580 0.00850447
2592 0.00608032
2604 0.000885011
2616 0.00199807
2628 0.00794141
2640 0.0121257
2652 0.024095
2664 0.00234805
2676 0.00146124
2688 0.000000000000000000e+00
2700 0.00467144
2712 0.0065201
2724 0.0108365
2736 0.023209
2748 0.00534148
2760 0.00688941
2772 0.00902671
2784 0.0108853
2796 0.00507427
2808 0.00493493
2820 0.0103176
2832 0.000997415
2844 0.00299397
2856 0.00552623
2868 0.00446409
2880 0.00574501
2892 0.011433
2904 0.0180677
2916 0.00758015
2928 0.00309281
2940 0.00592091
2952 0.00401989
2964 0.00519921
2976 0.00633635
2988 0.00049448
3000 0.00102249
3012 0.00193475
3024 0.0055715
3036 0.00701098
3048 0.0034135
3060 0.00740361
3072 0.00839037
3084 0.0051361
3096 0.00916886
3108 0.00454105
3120 0.0076999
3132 0.012331
3144 0.00206326
3156 0.00206142
3168 0.00564111
3180 0.00560136
3192 0.00883075
3204 0.0121691
3216 0.00319349
3228 0.00257157
3240 0.00167439
3252 0.00222204
3264 0.00615925
3276 0.0085697
3288 0.00249291
3300 0.00323832
3312 0.00373982
3324 0.00527543
3336 0.0053074
3348 0.00816171
3360 0.00532987
3372 0.00221314
3384 0.00480585
3396 0.00613137
3408 0.00259852
3420 0.00426709
3432 0.00337531
3444 0.00321443
3456 0.0065022
3468 0.00585823
3480 0.00794401
3487 0.00515394