File: constrainednmf/example_data/BaTiO3_xrd_ramp/BTO_420K_tth.xy
0.000000000000000000e+00 0.000203366
12 0.0121145
24 0.0129101
36 0.00307849
48 0.00319447
60 0.00326574
72 0.00336973
84 0.00372121
96 0.00349662
108 0.00337194
120 0.0032758
132 0.00312082
144 0.00299454
156 0.00275999
168 0.00265502
180 0.0024417
192 0.00236119
204 0.00213325
216 0.00207922
228 0.00207855
240 0.00202593
252 0.00208964
264 0.00225495
276 0.00238473
288 0.00262678
300 0.00221122
312 0.00202362
324 0.00286212
336 0.0510997
348 0.00148252
360 0.004129
372 0.00080884
384 0.000796198
396 0.000908507
408 0.000907943
420 0.0010834
432 0.00143936
444 0.0021546
456 0.00474944
468 0.083632
480 0.0197624
492 0.00319292
504 0.00179814
516 0.00153734
528 0.000325059
540 0.000376329
552 0.000438345
564 0.00167624
576 0.0712174
588 0.00433429
600 0.000990818
612 0.000605826
624 0.00188625
636 0.00157411
648 0.00240059
660 0.0170227
672 0.212034
684 0.00411513
696 0.00151086
708 0.00066988
720 0.0005755
732 0.00119449
744 0.0334372
756 0.00498367
768 0.000940574
780 0.000969355
792 0.00201266
804 0.00536669
816 0.15677
828 0.0167618
840 0.00314317
852 0.0012092
864 0.000871393
876 0.000232713
888 0.000420473
900 0.000223383
912 0.000392369
924 0.00120848
936 0.00723992
948 0.313446
960 0.00416356
972 0.00145892
984 0.00115455
996 0.00547002
1008 0.0337657
1020 0.00115776
1032 0.00156912
1044 0.00590484
1056 0.132921
1068 0.0137516
1080 0.00247048
1092 0.00240303
1104 0.0207488
1116 0.0275506
1128 0.00141898
1140 0.00122195
1152 0.00513711
1164 0.0277296
1176 0.00119922
1188 0.00128087
1200 0.00551362
1212 0.0169273
1224 0.00244672
1236 0.00489423
1248 0.0708802
1260 0.0345545
1272 0.00302107
1284 0.00112898
1296 0.000742917
1308 0.000450086
1320 0.000775518
1332 0.00871784
1344 0.0348322
1356 0.00143677
1368 0.00248136
1380 0.0492753
1392 0.00394669
1404 0.00392713
1416 0.0454014
1428 0.0328322
1440 0.0034145
1452 0.00541161
1464 0.0357049
1476 0.00318932
1488 0.0103415
1500 0.137311
1512 0.0053547
1524 0.00376827
1536 0.0429783
1548 0.00254384
1560 0.00300083
1572 0.107364
1584 0.00308197
1596 0.00119961
1608 0.00105624
1620 0.00184644
1632 0.00678833
1644 0.11582
1656 0.00435735
1668 0.00516564
1680 0.0177036
1692 0.00629001
1704 0.0485579
1716 0.0501191
1728 0.0062621
1740 0.0205277
1752 0.00490025
1764 0.00110165
1776 0.00103187
1788 0.00149741
1800 0.00977057
1812 0.012876
1824 0.00642326
1836 0.0470539
1848 0.00744847
1860 0.00151509
1872 0.000177703
1884 0.00181366
1896 0.0258211
1908 0.00297793
1920 0.00492248
1932 0.0128218
1944 0.00475692
1956 0.068106
1968 0.00604147
1980 0.0148753
1992 0.0124282
2004 0.00756708
2016 0.0518836
2028 0.00408892
2040 0.00520419
2052 0.00535271
2064 0.0293345
2076 0.0250776
2088 0.00290084
2100 0.00205683
2112 0.00555678
2124 0.0236214
2136 0.00560465
2148 0.0187434
2160 0.00522641
2172 0.0229723
2184 0.0095401
2196 0.00420443
2208 0.00453241
2220 0.00749532
2232 0.0245972
2244 0.00418898
2256 0.0152059
2268 0.00596624
2280 0.0314696
2292 0.00226673
2304 0.000605051
2316 0.000574264
2328 0.0117852
2340 0.00197162
2352 0.00846354
2364 0.00681195
2376 0.0486633
2388 0.00719224
2400 0.0132317
2412 0.00477364
2424 0.0170619
2436 0.00483213
2448 0.0114316
2460 0.00994651
2472 0.0420526
2484 0.00438876
2496 0.0026719
2508 0.00773148
2520 0.0248214
2532 0.00438648
2544 0.0045091
2556 0.00440176
2568 0.00583188
2580 0.00860984
2592 0.0037086
2604 0.000707503
2616 0.0016386
2628 0.00961948
2640 0.00880719
2652 0.0270408
2664 0.00230288
2676 0.000453234
2688 0.00129753
2700 0.00287713
2712 0.00853914
2724 0.00794804
2736 0.0259762
2748 0.00423652
2760 0.00586744
2772 0.00979077
2784 0.00672023
2796 0.00639215
2808 0.00431708
2820 0.0099109
2832 0.000545647
2844 0.00198847
2856 0.00802843
2868 0.00390076
2880 0.00481108
2892 0.0122244
2904 0.0111135
2916 0.00842045
2928 0.00337255
2940 0.00486271
2952 0.00379842
2964 0.00344455
2976 0.008004
2988 0.0013086
3000 0.000506573
3012 0.00383507
3024 0.00238957
3036 0.00518788
3048 0.00301277
3060 0.00535687
3072 0.00731083
3084 0.00520372
3096 0.00569368
3108 0.00341404
3120 0.00737462
3132 0.00907883
3144 0.00218744
3156 0.00242182
3168 0.00285159
3180 0.00678122
3192 0.00611549
3204 0.00948132
3216 0.00256339
3228 0.00268871
3240 0.00104907
3252 0.00278346
3264 0.00403128
3276 0.00647843
3288 0.00133021
3300 0.00170014
3312 0.00352037
3324 0.00393818
3336 0.00471422
3348 0.00477788
3360 0.00535341
3372 0.00412506
3384 0.00474464
3396 0.00565911
3408 0.00596957
3420 0.00125574
3432 0.00350148
3444 0.00894053
3456 0.000394957
3468 0.00117787
3480 0.0073063
3487 0.0137895