File: constrainednmf/example_data/BaTiO3_xrd_ramp/BTO_350K_tth.xy
0.000000000000000000e+00 0.000337999
12 0.0124929
24 0.0131889
36 0.00297536
48 0.00303561
60 0.00316195
72 0.00324284
84 0.00365912
96 0.00346447
108 0.00341218
120 0.00324183
132 0.00323491
144 0.00297279
156 0.00288775
168 0.00280223
180 0.00255412
192 0.00251723
204 0.00236759
216 0.00228969
228 0.00223225
240 0.00214733
252 0.00224857
264 0.00238431
276 0.00248265
288 0.00279071
300 0.00230642
312 0.00213318
324 0.00320016
336 0.067297
348 0.0016984
360 0.00437715
372 0.000734684
384 0.000804027
396 0.000875389
408 0.000910628
420 0.00120307
432 0.0012764
444 0.00211226
456 0.00489172
468 0.0866588
480 0.0232864
492 0.00342564
504 0.00166565
516 0.00165463
528 0.000248819
540 0.000254468
552 0.000687474
564 0.00153719
576 0.0657188
588 0.00482495
600 0.000962757
612 0.000761998
624 0.0021686
636 0.00166155
648 0.00253521
660 0.020339
672 0.335469
684 0.00434044
696 0.00201535
708 0.00103759
720 0.00094691
732 0.00141935
744 0.0472466
756 0.00683901
768 0.000775296
780 0.00115411
792 0.00198941
804 0.00552919
816 0.191679
828 0.0209778
840 0.00312523
852 0.00129914
864 0.000645249
876 0.000551927
888 0.00076252
900 0.000247813
912 0.000259057
924 0.00143199
936 0.00747359
948 0.275996
960 0.00485119
972 0.00162186
984 0.00121084
996 0.00644835
1008 0.054655
1020 0.00121285
1032 0.00120313
1044 0.00577778
1056 0.114235
1068 0.0195015
1080 0.00246152
1092 0.00205901
1104 0.0340163
1116 0.0582235
1128 0.00136965
1140 0.000685926
1152 0.00461328
1164 0.0415922
1176 0.00127105
1188 0.000966875
1200 0.00605022
1212 0.0303107
1224 0.00224198
1236 0.00468526
1248 0.0954628
1260 0.0639007
1272 0.00359775
1284 0.00108077
1296 0.000192512
1308 0.000347555
1320 0.000587158
1332 0.018667
1344 0.0471579
1356 0.0016218
1368 0.00272621
1380 0.0385636
1392 0.00465365
1404 0.00382421
1416 0.062433
1428 0.0842059
1440 0.00390634
1452 0.00558295
1464 0.0424027
1476 0.00308691
1488 0.0130477
1500 0.0916894
1512 0.00685682
1524 0.00436801
1536 0.0250154
1548 0.0031468
1560 0.00311084
1572 0.104172
1584 0.00326891
1596 0.00148909
1608 0.00113679
1620 0.00158958
1632 0.00756455
1644 0.090762
1656 0.00499086
1668 0.00636341
1680 0.0161148
1692 0.00655476
1704 0.0591067
1716 0.117288
1728 0.00701976
1740 0.0148464
1752 0.00936932
1764 0.000978943
1776 0.000628951
1788 0.00126299
1800 0.0125948
1812 0.0263437
1824 0.00846697
1836 0.0265693
1848 0.0131358
1860 0.000990743
1872 0.000498465
1884 0.00116696
1896 0.0283009
1908 0.00551445
1920 0.00699583
1932 0.0176543
1944 0.00485199
1956 0.0540914
1968 0.00802049
1980 0.0206876
1992 0.0252853
2004 0.00922729
2016 0.0422323
2028 0.00558322
2040 0.00317179
2052 0.00703714
2064 0.0362183
2076 0.0603319
2088 0.00312414
2100 0.00163325
2112 0.0111517
2124 0.0108305
2136 0.00828634
2148 0.0160621
2160 0.00936526
2172 0.0289489
2184 0.0245856
2196 0.00604016
2208 0.00971379
2220 0.0125748
2232 0.0244641
2244 0.00605465
2256 0.0132543
2268 0.011838
2280 0.0187381
2292 0.00362792
2304 0.00031917
2316 0.000583535
2328 0.012381
2340 0.00316938
2352 0.00555598
2364 0.0109083
2376 0.041445
2388 0.0148625
2400 0.0115685
2412 0.00863074
2424 0.0143927
2436 0.00881051
2448 0.00961737
2460 0.0178436
2472 0.0269426
2484 0.00806566
2496 0.00378113
2508 0.0131719
2520 0.0286107
2532 0.005339
2544 0.00746183
2556 0.00395407
2568 0.0117414
2580 0.00848997
2592 0.0110678
2604 0.00146654
2616 0.00205261
2628 0.00780253
2640 0.0145891
2652 0.0208547
2664 0.00391569
2676 0.00162302
2688 0.000000000000000000e+00
2700 0.0049686
2712 0.00771241
2724 0.0133824
2736 0.0222192
2748 0.00659137
2760 0.00830982
2772 0.0091744
2784 0.0152619
2796 0.00314257
2808 0.00580535
2820 0.0102146
2832 0.00131108
2844 0.00421541
2856 0.00516536
2868 0.0079273
2880 0.00519614
2892 0.0109173
2904 0.0236048
2916 0.0073883
2928 0.00499159
2940 0.00517993
2952 0.00297314
2964 0.00647253
2976 0.00661089
2988 0.00186499
3000 0.00148819
3012 0.00258402
3024 0.00590983
3036 0.00849621
3048 0.00444456
3060 0.0085292
3072 0.0083201
3084 0.005892
3096 0.0127285
3108 0.00621267
3120 0.0102523
3132 0.0126275
3144 0.00303183
3156 0.00370929
3168 0.00864378
3180 0.00682057
3192 0.0110208
3204 0.0154644
3216 0.00447057
3228 0.00496812
3240 0.00320259
3252 0.00358137
3264 0.00662892
3276 0.00896556
3288 0.00274793
3300 0.00316991
3312 0.00661627
3324 0.00715388
3336 0.00765062
3348 0.0103309
3360 0.00571027
3372 0.0051625
3384 0.00633158
3396 0.00519162
3408 0.00437221
3420 0.00703073
3432 0.00790291
3444 0.00673012
3456 0.00744449
3468 0.00854333
3480 0.0177486
3487 0.0354679