File: constrainednmf/example_data/BaTiO3_xrd_ramp/BTO_335K_tth.xy
0.000000000000000000e+00 0.000270678
12 0.0123042
24 0.0131244
36 0.00296137
48 0.00304327
60 0.00315304
72 0.00327471
84 0.00369566
96 0.00357078
108 0.00348242
120 0.00329281
132 0.00322362
144 0.00310598
156 0.00297444
168 0.00283672
180 0.00271743
192 0.00257967
204 0.0023743
216 0.00232983
228 0.00225919
240 0.00224784
252 0.00229375
264 0.00236215
276 0.0025489
288 0.00280421
300 0.0023518
312 0.0021768
324 0.00312671
336 0.0698706
348 0.0017067
360 0.00443119
372 0.000791824
384 0.000841403
396 0.000766753
408 0.000781605
420 0.00107847
432 0.0012893
444 0.00211204
456 0.00494002
468 0.0861149
480 0.024011
492 0.00330972
504 0.0018367
516 0.00167204
528 0.000153103
540 0.000159174
552 0.000504355
564 0.00159579
576 0.0637301
588 0.00477146
600 0.000953755
612 0.000600219
624 0.00197752
636 0.00171977
648 0.00235681
660 0.0199999
672 0.345112
684 0.00444881
696 0.00193439
708 0.000941705
720 0.000753664
732 0.0014002
744 0.0479293
756 0.00712042
768 0.000973866
780 0.00105999
792 0.00202446
804 0.00561207
816 0.191808
828 0.0219393
840 0.00344696
852 0.00125648
864 0.000923087
876 0.000733089
888 0.000664271
900 0.000624762
912 0.000458121
924 0.00119823
936 0.00720441
948 0.277924
960 0.00513187
972 0.00152341
984 0.00125034
996 0.00658428
1008 0.0582087
1020 0.00130698
1032 0.00160262
1044 0.00589149
1056 0.113951
1068 0.021519
1080 0.00301565
1092 0.00222046
1104 0.0353045
1116 0.0662755
1128 0.00155337
1140 0.000970067
1152 0.0045866
1164 0.0462981
1176 0.00138509
1188 0.000917377
1200 0.00629609
1212 0.0317088
1224 0.00247473
1236 0.00475776
1248 0.0962535
1260 0.0727033
1272 0.00379367
1284 0.000943561
1296 0.000272414
1308 0.000295134
1320 0.000660684
1332 0.0191796
1344 0.0435729
1356 0.00174827
1368 0.00276178
1380 0.0380688
1392 0.00487875
1404 0.00373878
1416 0.0619691
1428 0.0960453
1440 0.00411292
1452 0.00546826
1464 0.0418081
1476 0.00316269
1488 0.0130819
1500 0.0863292
1512 0.00692352
1524 0.004396
1536 0.0241651
1548 0.00301646
1560 0.00281528
1572 0.102901
1584 0.00345106
1596 0.0010813
1608 0.000746392
1620 0.0010867
1632 0.00741108
1644 0.0847986
1656 0.00502909
1668 0.00634661
1680 0.0160645
1692 0.00632451
1704 0.0593518
1716 0.123414
1728 0.00756039
1740 0.0151106
1752 0.0109334
1764 0.00110223
1776 0.000474724
1788 0.00095055
1800 0.0128338
1812 0.0284907
1824 0.0086335
1836 0.0275587
1848 0.0156022
1860 0.00120312
1872 0.000386207
1884 0.00128554
1896 0.0283243
1908 0.00661919
1920 0.0072171
1932 0.0177993
1944 0.00520992
1956 0.0529563
1968 0.00939066
1980 0.0212325
1992 0.0270685
2004 0.00899453
2016 0.0428346
2028 0.00583322
2040 0.00354651
2052 0.00811857
2064 0.0365052
2076 0.0638673
2088 0.00325438
2100 0.00223713
2112 0.0123471
2124 0.0106808
2136 0.0102673
2148 0.0160101
2160 0.0112315
2172 0.0292127
2184 0.0270953
2196 0.00620394
2208 0.0116543
2220 0.0133428
2232 0.0221598
2244 0.00647878
2256 0.0137262
2268 0.0128506
2280 0.0179486
2292 0.004126
2304 0.000534687
2316 0.000493342
2328 0.0122541
2340 0.00358736
2352 0.0054943
2364 0.011209
2376 0.0411017
2388 0.0168822
2400 0.011603
2412 0.00983105
2424 0.0138501
2436 0.0099811
2448 0.00937323
2460 0.0175451
2472 0.0265168
2484 0.00880461
2496 0.0033614
2508 0.0131052
2520 0.0287222
2532 0.0048598
2544 0.00691695
2556 0.00418393
2568 0.0114013
2580 0.00854356
2592 0.0110211
2604 0.00145098
2616 0.00210853
2628 0.00798941
2640 0.0143765
2652 0.0199177
2664 0.00433927
2676 0.00142982
2688 0.000967413
2700 0.00425961
2712 0.00769988
2724 0.0143218
2736 0.0222684
2748 0.00779244
2760 0.00939313
2772 0.00884694
2784 0.0153749
2796 0.00357374
2808 0.00575798
2820 0.00998237
2832 0.000324858
2844 0.00329147
2856 0.00523861
2868 0.00948342
2880 0.00485409
2892 0.0121767
2904 0.0236151
2916 0.00718562
2928 0.00521593
2940 0.00523331
2952 0.00408676
2964 0.00613813
2976 0.00752093
2988 0.00248493
3000 0.000450673
3012 0.00255652
3024 0.00756948
3036 0.00836923
3048 0.00273982
3060 0.0103842
3072 0.00716884
3084 0.00744612
3096 0.00990538
3108 0.00700989
3120 0.0110367
3132 0.0116519
3144 0.0034726
3156 0.00418087
3168 0.00630407
3180 0.00787935
3192 0.0108239
3204 0.0144824
3216 0.00346753
3228 0.00479722
3240 0.00204247
3252 0.00412478
3264 0.00709633
3276 0.00797261
3288 0.00119032
3300 0.0018268
3312 0.00741152
3324 0.00426097
3336 0.00570056
3348 0.00798866
3360 0.00454712
3372 0.00392653
3384 0.00290426
3396 0.00415846
3408 0.00361104
3420 0.00253108
3432 0.00272239
3444 0.00964502
3456 0.00715872
3468 0.0107881
3480 0.00945008
3487 0.00147489