File: constrainednmf/example_data/BaTiO3_xrd_ramp/BTO_205K_tth.xy
0.000000000000000000e+00 0.000564431
12 0.0105412
24 0.0115968
36 0.00310752
48 0.00331594
60 0.00340518
72 0.00356549
84 0.00389729
96 0.00383008
108 0.00373291
120 0.00363107
132 0.00355468
144 0.00352674
156 0.00327642
168 0.00317623
180 0.00303325
192 0.00287647
204 0.00274843
216 0.00259171
228 0.00254332
240 0.00244406
252 0.00250492
264 0.00256267
276 0.00263432
288 0.00279491
300 0.00262766
312 0.00248189
324 0.00339016
336 0.0692241
348 0.0024529
360 0.00476116
372 0.00139018
384 0.00148435
396 0.00147088
408 0.00131182
420 0.00168103
432 0.00172842
444 0.00239474
456 0.00486745
468 0.0690399
480 0.0268984
492 0.00390583
504 0.00217127
516 0.00228988
528 0.00065415
540 0.000683199
552 0.000731431
564 0.00190766
576 0.0482845
588 0.0059318
600 0.00165928
612 0.00106748
624 0.00250213
636 0.00222843
648 0.00593551
660 0.0142575
672 0.230679
684 0.00567594
696 0.00350063
708 0.00161786
720 0.0010478
732 0.0015033
744 0.0268747
756 0.0101386
768 0.00101228
780 0.00165597
792 0.00175926
804 0.00484188
816 0.115671
828 0.0296693
840 0.00332
852 0.00128495
864 0.00110086
876 0.000926299
888 0.00125929
900 0.000664224
912 0.000622006
924 0.00156246
936 0.00630318
948 0.340589
960 0.00585651
972 0.00233919
984 0.00240158
996 0.00507404
1008 0.0703987
1020 0.00202467
1032 0.00191929
1044 0.00499498
1056 0.143207
1068 0.0434076
1080 0.00327871
1092 0.00329474
1104 0.0153917
1116 0.0738377
1128 0.00217912
1140 0.00146334
1152 0.0040891
1164 0.0991696
1176 0.00174498
1188 0.00102563
1200 0.00474836
1212 0.0349422
1224 0.00238733
1236 0.00416899
1248 0.0594709
1260 0.123936
1272 0.00395234
1284 0.00124819
1296 0.00080335
1308 0.000480901
1320 0.00100215
1332 0.00626028
1344 0.0229181
1356 0.00330777
1368 0.00240626
1380 0.0489323
1392 0.011709
1404 0.00382234
1416 0.0402505
1428 0.0803629
1440 0.00466689
1452 0.0054987
1464 0.0695041
1476 0.00367989
1488 0.00878357
1500 0.116271
1512 0.0116678
1524 0.00412577
1536 0.0415053
1548 0.00617804
1560 0.00326829
1572 0.0646538
1584 0.00554602
1596 0.00180901
1608 0.00136521
1620 0.00199598
1632 0.00589672
1644 0.0941712
1656 0.00779481
1668 0.00552857
1680 0.0209278
1692 0.00586115
1704 0.0492617
1716 0.112945
1728 0.00846898
1740 0.0280471
1752 0.0149455
1764 0.00184442
1776 0.000823442
1788 0.00153953
1800 0.00963811
1812 0.0317354
1824 0.00592894
1836 0.0663483
1848 0.0390979
1860 0.00190054
1872 0.000444957
1884 0.00128549
1896 0.0134884
1908 0.00766201
1920 0.00500805
1932 0.020334
1944 0.00447022
1956 0.0526768
1968 0.0176105
1980 0.0152046
1992 0.0256811
2004 0.00691071
2016 0.056447
2028 0.00871545
2040 0.00879986
2052 0.00642037
2064 0.0321418
2076 0.0534147
2088 0.00576307
2100 0.00174657
2112 0.00456894
2124 0.0268935
2136 0.0183793
2148 0.0209107
2160 0.0124182
2172 0.0176777
2184 0.0366688
2196 0.00489028
2208 0.0135747
2220 0.00689462
2232 0.0194498
2244 0.0086452
2256 0.0175927
2268 0.00714716
2280 0.0307422
2292 0.0139283
2304 0.0010538
2316 0.000721177
2328 0.00739426
2340 0.00321972
2352 0.0102001
2364 0.0100704
2376 0.0404479
2388 0.0174454
2400 0.014946
2412 0.00845241
2424 0.0175419
2436 0.0126546
2448 0.0126322
2460 0.013175
2472 0.0422688
2484 0.0185556
2496 0.00353825
2508 0.00835504
2520 0.0327441
2532 0.00742641
2544 0.00777859
2556 0.00676351
2568 0.00684757
2580 0.0132856
2592 0.00987046
2604 0.00151473
2616 0.0020334
2628 0.00934103
2640 0.0124401
2652 0.0323124
2664 0.0107852
2676 0.000765346
2688 0.00278574
2700 0.00258398
2712 0.00916604
2724 0.0108124
2736 0.027787
2748 0.012841
2760 0.00534714
2772 0.0134552
2784 0.014716
2796 0.0107608
2808 0.00679585
2820 0.0161912
2832 0.00144709
2844 0.00115987
2856 0.00869764
2868 0.00748322
2880 0.00576325
2892 0.0171266
2904 0.0208769
2916 0.0124142
2928 0.00699706
2940 0.00836579
2952 0.00660872
2964 0.0059877
2976 0.00929594
2988 0.00461919
3000 0.000263919
3012 0.00407939
3024 0.00619475
3036 0.00710182
3048 0.00919669
3060 0.00708963
3072 0.011215
3084 0.00896487
3096 0.00916801
3108 0.00645137
3120 0.0115504
3132 0.0187368
3144 0.00618679
3156 0.00283284
3168 0.00881385
3180 0.0085242
3192 0.0114847
3204 0.0186359
3216 0.00957805
3228 0.00236974
3240 0.00134025
3252 0.00238769
3264 0.0073559
3276 0.0100147
3288 0.00367976
3300 0.00111806
3312 0.00401138
3324 0.00330777
3336 0.00615704
3348 0.0109641
3360 0.00672955
3372 0.00571885
3384 0.00557111
3396 0.00610661
3408 0.00746824
3420 0.00195848
3432 0.00414453
3444 0.00851498
3456 0.00867309
3468 0.0091742
3480 0.00194242
3487 0.00538605