File: constrainednmf/example_data/BaTiO3_xrd_ramp/BTO_290K_tth.xy
0.000000000000000000e+00 3.01549e-05
12 0.0112639
24 0.0122036
36 0.00282
48 0.00296171
60 0.00309943
72 0.00322537
84 0.00364211
96 0.00347969
108 0.00338516
120 0.00331265
132 0.00319322
144 0.00310314
156 0.00289019
168 0.0027855
180 0.00258098
192 0.00243412
204 0.00227559
216 0.00217577
228 0.00207209
240 0.0020807
252 0.00208172
264 0.00213301
276 0.00231448
288 0.0025476
300 0.00221456
312 0.00206139
324 0.00293734
336 0.0698694
348 0.00157215
360 0.00432686
372 0.000754262
384 0.00074283
396 0.000660734
408 0.000884432
420 0.00112134
432 0.00125427
444 0.00216909
456 0.00481267
468 0.0813753
480 0.024404
492 0.00339538
504 0.00171793
516 0.0015785
528 0.000290538
540 0.000249949
552 0.000475925
564 0.00157632
576 0.0588611
588 0.00491638
600 0.00104366
612 0.000388375
624 0.00182626
636 0.00155977
648 0.00223053
660 0.0181798
672 0.309899
684 0.00440181
696 0.00198509
708 0.000574006
720 0.000561905
732 0.00125324
744 0.0421763
756 0.00767102
768 0.000619868
780 0.000715208
792 0.00155246
804 0.00527486
816 0.170494
828 0.0229963
840 0.00314726
852 0.0009748
864 0.000711928
876 0.000179628
888 0.000468733
900 0.000188285
912 0.000145945
924 0.000869087
936 0.00685808
948 0.308736
960 0.00488421
972 0.00132329
984 0.00119314
996 0.00604514
1008 0.0582772
1020 0.00138132
1032 0.00139386
1044 0.00533756
1056 0.134615
1068 0.0254123
1080 0.00287723
1092 0.00241453
1104 0.0290748
1116 0.0782415
1128 0.00142413
1140 0.000866662
1152 0.00445961
1164 0.0589773
1176 0.00115083
1188 0.000874122
1200 0.00598182
1212 0.0323716
1224 0.00205008
1236 0.00485596
1248 0.0852887
1260 0.0876387
1272 0.00365329
1284 0.00109722
1296 0.000567341
1308 0.000346259
1320 0.000884156
1332 0.0149052
1344 0.0291706
1356 0.00202669
1368 0.00293284
1380 0.0421834
1392 0.0063832
1404 0.00366089
1416 0.0573148
1428 0.104191
1440 0.00363764
1452 0.00528658
1464 0.0483321
1476 0.00288543
1488 0.0111817
1500 0.0830813
1512 0.00773473
1524 0.00375082
1536 0.0287409
1548 0.00332658
1560 0.00254306
1572 0.0909783
1584 0.00340642
1596 0.00109145
1608 0.000383792
1620 0.0010029
1632 0.00668272
1644 0.0783459
1656 0.00505774
1668 0.00586024
1680 0.0169838
1692 0.00565119
1704 0.0593447
1716 0.11107
1728 0.00729076
1740 0.0197055
1752 0.0160891
1764 0.000865484
1776 0.000149557
1788 0.000797196
1800 0.0117905
1812 0.0286223
1824 0.00735711
1836 0.0415314
1848 0.0226661
1860 0.00115165
1872 0.000674451
1884 0.000938636
1896 0.0217054
1908 0.00735648
1920 0.00634259
1932 0.0164533
1944 0.00479507
1956 0.0532079
1968 0.0114669
1980 0.0190473
1992 0.0268777
2004 0.00825585
2016 0.0514261
2028 0.00672081
2040 0.00464786
2052 0.00877425
2064 0.0368717
2076 0.0594229
2088 0.00365641
2100 0.00149348
2112 0.00948622
2124 0.0145098
2136 0.0138427
2148 0.0172036
2160 0.0137105
2172 0.0244673
2184 0.0262508
2196 0.00563076
2208 0.012847
2220 0.0108022
2232 0.0157692
2244 0.00632781
2256 0.0145172
2268 0.0105488
2280 0.0183074
2292 0.00578502
2304 4.18916e-05
2316 0.000265528
2328 0.00996323
2340 0.00249706
2352 0.00633882
2364 0.0107426
2376 0.0414399
2388 0.0198906
2400 0.0122949
2412 0.0109439
2424 0.0131616
2436 0.0102582
2448 0.00921619
2460 0.0170262
2472 0.0305921
2484 0.0127585
2496 0.00267255
2508 0.0111443
2520 0.0279688
2532 0.00496849
2544 0.00651766
2556 0.00498372
2568 0.00871893
2580 0.0093717
2592 0.0111967
2604 0.000877733
2616 0.0013733
2628 0.00708566
2640 0.0136685
2652 0.0221217
2664 0.0047411
2676 0.00087434
2688 0.000366027
2700 0.0027467
2712 0.00719369
2724 0.0132377
2736 0.0219992
2748 0.0110418
2760 0.00684769
2772 0.0108515
2784 0.0132049
2796 0.00554156
2808 0.00789449
2820 0.0126637
2832 0.00176723
2844 0.00188342
2856 0.00643971
2868 0.0103366
2880 0.00576702
2892 0.0145468
2904 0.0221867
2916 0.00831333
2928 0.00551372
2940 0.00697897
2952 0.00506098
2964 0.00568598
2976 0.00755123
2988 0.00301347
3000 0.00189448
3012 0.00346789
3024 0.00726839
3036 0.00658891
3048 0.00521599
3060 0.00895331
3072 0.00879052
3084 0.00669089
3096 0.00960575
3108 0.00642007
3120 0.0111779
3132 0.012426
3144 0.00490929
3156 0.00300894
3168 0.0078962
3180 0.00637733
3192 0.0128743
3204 0.015514
3216 0.00576629
3228 0.00193543
3240 0.00100948
3252 0.00331799
3264 0.00720757
3276 0.00733551
3288 0.00198518
3300 0.0017512
3312 0.00561669
3324 0.00408915
3336 0.00708
3348 0.0122797
3360 0.00631566
3372 0.00675724
3384 0.00596189
3396 0.00791625
3408 0.00516031
3420 0.00222531
3432 0.00618638
3444 0.00859508
3456 0.00942909
3468 0.0109345
3480 0.0161486
3487 0.0250581