File: constrainednmf/example_data/BaTiO3_xrd_ramp/BTO_225K_tth.xy
0.000000000000000000e+00 0.000162392
12 0.00981347
24 0.011263
36 0.00303296
48 0.00325332
60 0.00338345
72 0.00351985
84 0.00385032
96 0.00367777
108 0.00347805
120 0.00336744
132 0.00317544
144 0.00302647
156 0.0028475
168 0.00273277
180 0.00253998
192 0.0022853
204 0.00218338
216 0.00209091
228 0.00200445
240 0.00189003
252 0.00199892
264 0.0020334
276 0.0021392
288 0.00240327
300 0.00208357
312 0.00191885
324 0.00281101
336 0.0655333
348 0.00155429
360 0.00426566
372 0.000802242
384 0.000853003
396 0.000847783
408 0.000965119
420 0.0013004
432 0.00119734
444 0.00207625
456 0.00465692
468 0.0767612
480 0.0239274
492 0.00345027
504 0.00171025
516 0.00182842
528 0.000395
540 0.000283265
552 0.000630172
564 0.00163567
576 0.054241
588 0.00499106
600 0.00110479
612 0.000580257
624 0.00199034
636 0.00152187
648 0.00227576
660 0.0150933
672 0.226357
684 0.00452844
696 0.00215003
708 0.000896314
720 0.000682023
732 0.00099127
744 0.0323588
756 0.00834858
768 0.00061707
780 0.000805251
792 0.00144855
804 0.00486074
816 0.139037
828 0.0248122
840 0.00300515
852 0.000742269
864 0.00053721
876 0.000235333
888 0.000660677
900 0.000326494
912 0.000356878
924 0.00118543
936 0.00633148
948 0.338711
960 0.00510676
972 0.00141431
984 0.00145432
996 0.00484255
1008 0.0575652
1020 0.00130455
1032 0.00137643
1044 0.00475692
1056 0.165413
1068 0.0341888
1080 0.00263503
1092 0.00236273
1104 0.0185163
1116 0.0763887
1128 0.00154449
1140 0.000993912
1152 0.00420579
1164 0.0747489
1176 0.00140587
1188 0.000957633
1200 0.00545196
1212 0.0334017
1224 0.00201243
1236 0.00418198
1248 0.0721272
1260 0.101035
1272 0.00386087
1284 0.000949353
1296 0.000291874
1308 0.000157677
1320 0.000785161
1332 0.00748073
1344 0.0174538
1356 0.00249219
1368 0.00247759
1380 0.0498787
1392 0.00933806
1404 0.00309656
1416 0.049933
1428 0.0808301
1440 0.00408338
1452 0.00518118
1464 0.0633625
1476 0.00288273
1488 0.00911095
1500 0.0965892
1512 0.008749
1524 0.00314487
1536 0.038072
1548 0.00426544
1560 0.00232255
1572 0.0733717
1584 0.00361134
1596 0.000904952
1608 0.00056862
1620 0.000987076
1632 0.00566911
1644 0.0852468
1656 0.00583541
1668 0.00530342
1680 0.0184249
1692 0.00560023
1704 0.0596823
1716 0.100195
1728 0.00764096
1740 0.0291901
1752 0.0177593
1764 0.00111768
1776 0.00018115
1788 0.0006852
1800 0.0113731
1812 0.0265368
1824 0.00606575
1836 0.0649489
1848 0.0375416
1860 0.00178709
1872 0.00055613
1884 0.000845218
1896 0.0136528
1908 0.00651848
1920 0.00599124
1932 0.017967
1944 0.00482256
1956 0.0559754
1968 0.014213
1980 0.0173151
1992 0.0257175
2004 0.00756229
2016 0.056989
2028 0.00857195
2040 0.00771549
2052 0.00692206
2064 0.037944
2076 0.0489793
2088 0.00466883
2100 0.00240856
2112 0.00539373
2124 0.0218271
2136 0.0204284
2148 0.0206009
2160 0.0129627
2172 0.0187687
2184 0.0320278
2196 0.00542323
2208 0.0119104
2220 0.00839896
2232 0.0142956
2244 0.00766621
2256 0.0156847
2268 0.0077758
2280 0.0249605
2292 0.0108514
2304 0.000462903
2316 0.000493384
2328 0.00836826
2340 0.00222719
2352 0.00889104
2364 0.00999084
2376 0.0404639
2388 0.01606
2400 0.0127154
2412 0.00866405
2424 0.0164265
2436 0.010794
2448 0.0103651
2460 0.0138853
2472 0.0371437
2484 0.0193085
2496 0.00224725
2508 0.00896283
2520 0.027612
2532 0.00656651
2544 0.00628686
2556 0.0067697
2568 0.00540266
2580 0.0122956
2592 0.00805201
2604 0.000727265
2616 0.00192087
2628 0.00764789
2640 0.01316
2652 0.02663
2664 0.00814532
2676 0.000373116
2688 0.00160043
2700 0.00262748
2712 0.00793766
2724 0.0117335
2736 0.0246257
2748 0.0131619
2760 0.00427285
2772 0.0136776
2784 0.0123212
2796 0.00852115
2808 0.00715339
2820 0.0156902
2832 0.00170057
2844 0.00152823
2856 0.00855235
2868 0.00814811
2880 0.00528542
2892 0.0190745
2904 0.0187759
2916 0.00998998
2928 0.00715515
2940 0.00942241
2952 0.00655811
2964 0.00579126
2976 0.0092543
2988 0.00415334
3000 0.000596766
3012 0.0046241
3024 0.00628852
3036 0.00702937
3048 0.00947341
3060 0.00671611
3072 0.00968897
3084 0.00850038
3096 0.00806917
3108 0.00588043
3120 0.0119341
3132 0.0165932
3144 0.00672192
3156 0.00359181
3168 0.00946927
3180 0.00656368
3192 0.0129514
3204 0.0149031
3216 0.00817488
3228 0.00256377
3240 0.00250799
3252 0.00283989
3264 0.00807708
3276 0.00789596
3288 0.0058665
3300 0.00353428
3312 0.00409847
3324 0.0030752
3336 0.00774922
3348 0.00897384
3360 0.00687249
3372 0.00473574
3384 0.00731251
3396 0.00434732
3408 0.00416098
3420 0.00177641
3432 0.00308802
3444 0.00706735
3456 0.00863151
3468 0.00880866
3480 0.0100521
3487 0.0121625