File: constrainednmf/example_data/BaTiO3_xrd_ramp/BTO_375K_tth.xy
0.000000000000000000e+00 0.000797095
12 0.0130647
24 0.0139031
36 0.00368896
48 0.00378535
60 0.00386874
72 0.0040231
84 0.00436984
96 0.00425573
108 0.00410056
120 0.0039483
132 0.00390231
144 0.00384901
156 0.00358735
168 0.00339597
180 0.00335338
192 0.00305897
204 0.00291284
216 0.00289531
228 0.00289297
240 0.00282998
252 0.00289544
264 0.00296335
276 0.00311222
288 0.00338259
300 0.00299158
312 0.00279498
324 0.00370533
336 0.0641889
348 0.00218136
360 0.00498506
372 0.00143445
384 0.00149654
396 0.00146795
408 0.00158787
420 0.00174529
432 0.00181038
444 0.00282177
456 0.00542941
468 0.0880996
480 0.023046
492 0.00409009
504 0.00249084
516 0.00236148
528 0.000950452
540 0.000768679
552 0.00115485
564 0.00242483
576 0.0688669
588 0.00528307
600 0.00170245
612 0.00133513
624 0.00273132
636 0.00208569
648 0.00317833
660 0.0200574
672 0.311178
684 0.00493531
696 0.00240322
708 0.00151531
720 0.00143644
732 0.00189198
744 0.0457527
756 0.00680537
768 0.00145597
780 0.00160135
792 0.00261959
804 0.00622418
816 0.188476
828 0.0203761
840 0.00340027
852 0.00189896
864 0.00131125
876 0.000843259
888 0.00118255
900 0.00065459
912 0.000876478
924 0.00167623
936 0.00773634
948 0.280692
960 0.00505163
972 0.00196343
984 0.0016543
996 0.00685488
1008 0.0500907
1020 0.00196234
1032 0.00215919
1044 0.0064322
1056 0.120077
1068 0.0181107
1080 0.00320558
1092 0.00273227
1104 0.0316505
1116 0.0484035
1128 0.00206796
1140 0.00139344
1152 0.00521329
1164 0.0368071
1176 0.00164378
1188 0.0016914
1200 0.00678598
1212 0.0283694
1224 0.0028647
1236 0.00534684
1248 0.0924097
1260 0.0538324
1272 0.00382472
1284 0.00168945
1296 0.00099598
1308 0.000910488
1320 0.00121837
1332 0.0174147
1344 0.0498708
1356 0.00220771
1368 0.00302155
1380 0.0403597
1392 0.00460338
1404 0.00414091
1416 0.0621097
1428 0.0673775
1440 0.0042625
1452 0.00571655
1464 0.0431129
1476 0.00357924
1488 0.0129681
1500 0.101131
1512 0.00681026
1524 0.00446455
1536 0.0279699
1548 0.00348331
1560 0.00326701
1572 0.105934
1584 0.0038565
1596 0.00152228
1608 0.00164754
1620 0.00196177
1632 0.00859739
1644 0.0995906
1656 0.00508263
1668 0.00647085
1680 0.0175832
1692 0.00658881
1704 0.0594467
1716 0.102275
1728 0.0075642
1740 0.0158342
1752 0.00768337
1764 0.00094077
1776 0.000733066
1788 0.00150549
1800 0.0133287
1812 0.0238054
1824 0.00837704
1836 0.0280138
1848 0.0112151
1860 0.00172473
1872 0.000766156
1884 0.00131152
1896 0.0286535
1908 0.00464345
1920 0.00664228
1932 0.0179461
1944 0.00524969
1956 0.057553
1968 0.00795354
1980 0.0205779
1992 0.0229777
2004 0.00969226
2016 0.0432837
2028 0.00544142
2040 0.00380662
2052 0.00649985
2064 0.0352316
2076 0.0519521
2088 0.00357914
2100 0.00229888
2112 0.0105069
2124 0.0126237
2136 0.00746079
2148 0.0163375
2160 0.00798162
2172 0.0285981
2184 0.0213536
2196 0.00547278
2208 0.00858519
2220 0.0124478
2232 0.0274889
2244 0.00587639
2256 0.0140584
2268 0.0105752
2280 0.0217986
2292 0.00368373
2304 0.000931412
2316 0.000886595
2328 0.0136957
2340 0.00279958
2352 0.00631595
2364 0.0104225
2376 0.0421547
2388 0.0121544
2400 0.0114407
2412 0.00762833
2424 0.0148451
2436 0.00831423
2448 0.00999568
2460 0.017185
2472 0.0285405
2484 0.00724331
2496 0.00379868
2508 0.0122451
2520 0.0278904
2532 0.00529239
2544 0.00740307
2556 0.0046519
2568 0.011361
2580 0.00874953
2592 0.00872135
2604 0.00114293
2616 0.00253501
2628 0.00811365
2640 0.0134924
2652 0.0218931
2664 0.00355229
2676 0.00153976
2688 0.000664294
2700 0.00556617
2712 0.00726106
2724 0.0122435
2736 0.0230837
2748 0.00589705
2760 0.00892105
2772 0.00966188
2784 0.0137523
2796 0.00491381
2808 0.00542194
2820 0.0107
2832 0.00060568
2844 0.00305846
2856 0.00506768
2868 0.00675226
2880 0.00493416
2892 0.011118
2904 0.0217089
2916 0.00765974
2928 0.00499288
2940 0.00458428
2952 0.0034686
2964 0.00433633
2976 0.00746745
2988 0.00122009
3000 0.00148348
3012 0.00283655
3024 0.00492751
3036 0.00713371
3048 0.00238681
3060 0.00962136
3072 0.00701814
3084 0.00426739
3096 0.00984464
3108 0.00591402
3120 0.00959607
3132 0.0110834
3144 0.00256364
3156 0.00353575
3168 0.00636839
3180 0.00620681
3192 0.0101045
3204 0.0143284
3216 0.00227179
3228 0.00374495
3240 0.000923421
3252 0.0051154
3264 0.00605634
3276 0.00709095
3288 0.00308858
3300 0.00344457
3312 0.00467584
3324 0.0048011
3336 0.00411363
3348 0.00821784
3360 0.00495914
3372 0.00306868
3384 0.00661914
3396 0.00446768
3408 0.00481891
3420 0.000607589
3432 0.00518574
3444 0.00822575
3456 0.00312452
3468 0.00666543
3480 0.00628421
3487 0.0197785