File: constrainednmf/example_data/BaTiO3_xrd_ramp/constrained_nmf_component0.xy
0.000000000000000000e+00 0.000930581
12 0.00994004
24 0.0108928
36 0.00270606
48 0.00284826
60 0.0029005
72 0.00309521
84 0.00344234
96 0.00341929
108 0.00338799
120 0.00339846
132 0.0033874
144 0.00337144
156 0.00330845
168 0.00331756
180 0.00317449
192 0.00311112
204 0.00299196
216 0.00290312
228 0.0029212
240 0.0028885
252 0.00290046
264 0.00296038
276 0.00295287
288 0.0032596
300 0.00304662
312 0.00282975
324 0.00362638
336 0.0672908
348 0.00271059
360 0.00479396
372 0.00164151
384 0.00178692
396 0.00157213
408 0.00148447
420 0.00189602
432 0.00171069
444 0.00238907
456 0.00472905
468 0.0579282
480 0.0273548
492 0.00380663
504 0.00219453
516 0.00239061
528 0.000569614
540 0.000602753
552 0.000927204
564 0.00178877
576 0.0443904
588 0.00602444
600 0.00159467
612 0.00107518
624 0.00243986
636 0.00227245
648 0.0096841
660 0.0126914
672 0.267286
684 0.00533372
696 0.00362388
708 0.00168102
720 0.00126022
732 0.00165581
744 0.0196415
756 0.0101232
768 0.0012589
780 0.00208564
792 0.00191242
804 0.00462262
816 0.0913233
828 0.0307961
840 0.00339216
852 0.00128339
864 0.00119826
876 0.000925578
888 0.00139568
900 0.000825602
912 0.00100942
924 0.00135751
936 0.00574843
948 0.353052
960 0.00638909
972 0.00208778
984 0.00267812
996 0.00415907
1008 0.078289
1020 0.00214311
1032 0.00172477
1044 0.00445971
1056 0.0941114
1068 0.0337152
1080 0.00304541
1092 0.0026603
1104 0.012033
1116 0.065149
1128 0.00183706
1140 0.00109847
1152 0.00413664
1164 0.115341
1176 0.00123488
1188 0.000870476
1200 0.00365016
1212 0.0372558
1224 0.00223776
1236 0.0040503
1248 0.0433599
1260 0.112124
1272 0.00431398
1284 0.00119996
1296 0.000662196
1308 0.000740478
1320 0.000873626
1332 0.00447239
1344 0.0393181
1356 0.00375078
1368 0.00226402
1380 0.0407836
1392 0.00840621
1404 0.0036263
1416 0.0257589
1428 0.0835117
1440 0.00541728
1452 0.00525731
1464 0.0712669
1476 0.00368494
1488 0.00782568
1500 0.13421
1512 0.0124294
1524 0.00418866
1536 0.0428495
1548 0.00640816
1560 0.00335371
1572 0.0577683
1584 0.00713096
1596 0.00219542
1608 0.00153549
1620 0.00226401
1632 0.00546417
1644 0.0971643
1656 0.00806366
1668 0.0046493
1680 0.0257597
1692 0.00536826
1704 0.0309168
1716 0.132865
1728 0.00853685
1740 0.0212634
1752 0.01189
1764 0.00184771
1776 0.000749244
1788 0.00143129
1800 0.00725997
1812 0.039566
1824 0.00530653
1836 0.0550644
1848 0.0238657
1860 0.00215071
1872 0.000551763
1884 0.000609715
1896 0.0137199
1908 0.00831185
1920 0.00355746
1932 0.0241454
1944 0.0039458
1956 0.0477688
1968 0.0144184
1980 0.010333
1992 0.031372
2004 0.00535444
2016 0.0549636
2028 0.00612489
2040 0.00648023
2052 0.00489936
2064 0.0206928
2076 0.0727025
2088 0.00518315
2100 0.000961931
2112 0.00291583
2124 0.0294558
2136 0.010618
2148 0.0189835
2160 0.011987
2172 0.0148213
2184 0.0399263
2196 0.00460832
2208 0.016033
2220 0.00461073
2232 0.0305399
2244 0.00637612
2256 0.0189521
2268 0.00538712
2280 0.0349062
2292 0.00847019
2304 0.000814968
2316 0.000861446
2328 0.00544278
2340 0.00330754
2352 0.0107196
2364 0.00787772
2376 0.0406962
2388 0.0185343
2400 0.0175072
2412 0.00842318
2424 0.0181569
2436 0.0105235
2448 0.0149211
2460 0.0106421
2472 0.0498714
2484 0.0146908
2496 0.00372791
2508 0.00608778
2520 0.0388078
2532 0.00809092
2544 0.0107999
2556 0.00525056
2568 0.011592
2580 0.0119748
2592 0.0147013
2604 0.00186113
2616 0.00217836
2628 0.0102182
2640 0.00902332
2652 0.0401711
2664 0.00819547
2676 0.00136051
2688 0.00171654
2700 0.00284462
2712 0.00996828
2724 0.0102633
2736 0.0315839
2748 0.0099936
2760 0.00766804
2772 0.0106791
2784 0.0209197
2796 0.0108701
2808 0.00660945
2820 0.0156288
2832 0.00154795
2844 0.000830643
2856 0.008426
2868 0.0089265
2880 0.00701214
2892 0.0129628
2904 0.0338174
2916 0.0117992
2928 0.00623764
2940 0.00929228
2952 0.00638353
2964 0.00933346
2976 0.0105272
2988 0.00507309
3000 0.000786662
3012 0.00481332
3024 0.00765633
3036 0.00987994
3048 0.008304
3060 0.0101733
3072 0.0113499
3084 0.00865776
3096 0.0170292
3108 0.00835471
3120 0.0113908
3132 0.0284281
3144 0.00621961
3156 0.00405775
3168 0.0113179
3180 0.0111504
3192 0.0135491
3204 0.024488
3216 0.00850887
3228 0.00427801
3240 0.00103503
3252 0.00363117
3264 0.00582408
3276 0.0168776
3288 0.00215648
3300 0.000615673
3312 0.00508517
3324 0.002589
3336 0.00784891
3348 0.0159353
3360 0.00885268
3372 0.00422545
3384 0.00899016
3396 0.00776752
3408 0.00770832
3420 0.0055712
3432 0.00724083
3444 0.0143384
3456 0.0172101
3468 0.0178501
3480 0.0236043
3487 7.48528e-05